WE1 Volts(mV)    WE1 Idir (uA) 
-600.260900 	 -4.764214 
-600.021700 	 -4.748374 
-599.530800 	 -4.722620 
-598.783600 	 -4.690328 
-597.776100 	 -4.648263 
-596.768200 	 -4.615717 
-595.764800 	 -4.585098 
-594.759000 	 -4.554930 
-593.755600 	 -4.526753 
-592.756800 	 -4.498256 
-591.738600 	 -4.471180 
-590.750500 	 -4.445351 
-589.749800 	 -4.420071 
-588.757600 	 -4.397910 
-587.785500 	 -4.375111 
-586.776100 	 -4.351435 
-585.796300 	 -4.328362 
-584.800500 	 -4.304062 
-583.802700 	 -4.280589 
-582.811100 	 -4.258049 
-581.806500 	 -4.236205 
-580.797500 	 -4.213390 
-579.780400 	 -4.190564 
-578.779300 	 -4.168385 
-577.784500 	 -4.147700 
-576.806700 	 -4.127666 
-575.810100 	 -4.108895 
-574.803200 	 -4.089340 
-573.791600 	 -4.068083 
-572.770500 	 -4.048318 
-571.785300 	 -4.028662 
-570.804200 	 -4.008770 
-569.829800 	 -3.989545 
-568.823200 	 -3.969312 
-567.789200 	 -3.948061 
-566.772000 	 -3.927920 
-565.742200 	 -3.909068 
-564.752600 	 -3.890806 
-563.776800 	 -3.873549 
-562.789600 	 -3.855623 
-561.801000 	 -3.838259 
-560.797500 	 -3.819655 
-559.820100 	 -3.801702 
-558.828900 	 -3.783924 
-557.832200 	 -3.764016 
-556.845500 	 -3.744976 
-555.810100 	 -3.724836 
-554.781600 	 -3.704965 
-553.771600 	 -3.686650 
-552.782500 	 -3.669838 
-551.788500 	 -3.653696 
-550.803300 	 -3.638032 
-549.810200 	 -3.621264 
-548.784700 	 -3.604130 
-547.789300 	 -3.585602 
-546.772200 	 -3.566526 
-545.775900 	 -3.548148 
-544.769000 	 -3.529011 
-543.772500 	 -3.511656 
-542.788400 	 -3.494979 
-541.772000 	 -3.476881 
-540.789200 	 -3.460306 
-539.790900 	 -3.444152 
-538.801300 	 -3.427403 
-537.840500 	 -3.412382 
-536.848500 	 -3.395592 
-535.842800 	 -3.377430 
-534.822500 	 -3.360496 
-533.794700 	 -3.342762 
-532.796800 	 -3.326139 
-531.789200 	 -3.310161 
-530.806400 	 -3.291972 
-529.805100 	 -3.274057 
-528.787800 	 -3.255384 
-527.800000 	 -3.238395 
-526.780000 	 -3.223395 
-525.778200 	 -3.208216 
-524.781200 	 -3.194460 
-523.777800 	 -3.178703 
-522.779500 	 -3.162036 
-521.789900 	 -3.146509 
-520.796100 	 -3.129724 
-519.788500 	 -3.113601 
-518.803200 	 -3.097336 
-517.787300 	 -3.078988 
-516.778000 	 -3.062542 
-515.759500 	 -3.045875 
-514.745000 	 -3.030896 
-513.748200 	 -3.017802 
-512.740300 	 -3.003091 
-511.766400 	 -2.989453 
-510.793500 	 -2.974791 
-509.792700 	 -2.959124 
-508.810900 	 -2.944656 
-507.817900 	 -2.929159 
-506.802600 	 -2.912951 
-505.823300 	 -2.898613 
-504.806800 	 -2.883005 
-503.783500 	 -2.868084 
-502.775900 	 -2.854488 
-501.783300 	 -2.839667 
-500.793200 	 -2.826182 
-499.811500 	 -2.812398 
-498.826400 	 -2.798748 
-497.801800 	 -2.784649 
-496.804400 	 -2.769083 
-495.802400 	 -2.754244 
-494.807600 	 -2.739259 
-493.816800 	 -2.724516 
-492.818700 	 -2.711532 
-491.823500 	 -2.697315 
-490.805800 	 -2.681926 
-489.829300 	 -2.669560 
-488.817100 	 -2.656594 
-487.811400 	 -2.644819 
-486.833600 	 -2.634467 
-485.813100 	 -2.621487 
-484.831400 	 -2.608328 
-483.830400 	 -2.594584 
-482.814400 	 -2.582144 
-481.824300 	 -2.569869 
-480.811700 	 -2.557610 
-479.840000 	 -2.545344 
-478.854100 	 -2.531775 
-477.845000 	 -2.518221 
-476.841100 	 -2.507343 
-475.835700 	 -2.496827 
-474.813300 	 -2.486086 
-473.816600 	 -2.476750 
-472.818600 	 -2.464537 
-471.807900 	 -2.453060 
-470.825600 	 -2.441651 
-469.838300 	 -2.429881 
-468.852600 	 -2.418573 
-467.861300 	 -2.405788 
-466.860000 	 -2.394461 
-465.832700 	 -2.382646 
-464.809600 	 -2.371113 
-463.786400 	 -2.362258 
-462.777400 	 -2.352932 
-461.780000 	 -2.343536 
-460.791300 	 -2.334983 
-459.809400 	 -2.324939 
-458.816400 	 -2.313980 
-457.835300 	 -2.303035 
-456.839100 	 -2.291471 
-455.831100 	 -2.279764 
-454.845000 	 -2.269197 
-453.822300 	 -2.259010 
-452.809300 	 -2.249498 
-451.810600 	 -2.241046 
-450.806500 	 -2.231848 
-449.808200 	 -2.222987 
-448.829100 	 -2.214243 
-447.844100 	 -2.204830 
-446.854900 	 -2.195259 
-445.858700 	 -2.184341 
-444.866500 	 -2.176123 
-443.872700 	 -2.166458 
-442.846200 	 -2.157681 
-441.862300 	 -2.150468 
-440.863500 	 -2.139699 
-439.834700 	 -2.129551 
-438.850700 	 -2.119511 
-437.835300 	 -2.109233 
-436.818700 	 -2.099732 
-435.831100 	 -2.090410 
-434.835700 	 -2.081904 
-433.849200 	 -2.072447 
-432.866600 	 -2.063629 
-431.865400 	 -2.056270 
-430.843800 	 -2.047029 
-429.828400 	 -2.037237 
-428.813400 	 -2.028050 
-427.800800 	 -2.018023 
-426.804400 	 -2.009358 
-425.805500 	 -2.003151 
-424.792100 	 -1.994883 
-423.809400 	 -1.986866 
-422.816100 	 -1.978794 
-421.812300 	 -1.969679 
-420.823200 	 -1.960146 
-419.822400 	 -1.950583 
-418.809300 	 -1.939517 
-417.814000 	 -1.928021 
-416.798600 	 -1.917742 
-415.769300 	 -1.907787 
-414.780900 	 -1.899437 
-413.748800 	 -1.890644 
-412.756300 	 -1.883894 
-411.781200 	 -1.876297 
-410.775400 	 -1.867191 
-409.826200 	 -1.859251 
-408.832300 	 -1.847762 
-407.825900 	 -1.836042 
-406.831100 	 -1.825009 
-405.814000 	 -1.813877 
-404.816700 	 -1.803583 
-403.818500 	 -1.793987 
-402.808100 	 -1.784046 
-401.811300 	 -1.773902 
-400.801400 	 -1.762674 
-399.804800 	 -1.752634 
-398.818100 	 -1.742154 
-397.814500 	 -1.730496 
-396.825400 	 -1.719565 
-395.828000 	 -1.706467 
-394.832700 	 -1.693234 
-393.852100 	 -1.681010 
-392.833500 	 -1.668666 
-391.836000 	 -1.655519 
-390.847200 	 -1.642460 
-389.840000 	 -1.628910 
-388.880200 	 -1.616338 
-387.883300 	 -1.603660 
-386.858000 	 -1.591389 
-385.855900 	 -1.578752 
-384.839200 	 -1.563558 
-383.842400 	 -1.549537 
-382.868300 	 -1.534648 
-381.871500 	 -1.518788 
-380.872400 	 -1.504082 
-379.869200 	 -1.487762 
-378.884400 	 -1.470370 
-377.893600 	 -1.453738 
-376.898000 	 -1.436971 
-375.891800 	 -1.420154 
-374.863800 	 -1.403903 
-373.851400 	 -1.386833 
-372.850300 	 -1.369603 
-371.862900 	 -1.353322 
-370.850100 	 -1.336018 
-369.856000 	 -1.317939 
-368.854700 	 -1.297344 
-367.863700 	 -1.275512 
-366.874100 	 -1.253444 
-365.861700 	 -1.230314 
-364.856900 	 -1.209691 
-363.845200 	 -1.187728 
-362.845800 	 -1.165735 
-361.849100 	 -1.145334 
-360.844000 	 -1.123501 
-359.844700 	 -1.101350 
-358.853300 	 -1.079005 
-357.867700 	 -1.053420 
-356.873800 	 -1.026221 
-355.877500 	 -0.998958 
-354.874100 	 -0.971233 
-353.862400 	 -0.945064 
-352.862300 	 -0.919726 
-351.864800 	 -0.895212 
-350.857700 	 -0.869236 
-349.864300 	 -0.840070 
-348.873800 	 -0.811797 
-347.878700 	 -0.781511 
-346.893800 	 -0.748773 
-345.882600 	 -0.719069 
-344.879200 	 -0.686843 
-343.863700 	 -0.653965 
-342.860000 	 -0.624102 
-341.868400 	 -0.591059 
-340.886500 	 -0.558764 
-339.891100 	 -0.526416 
-338.882500 	 -0.493339 
-337.889300 	 -0.459388 
-336.859700 	 -0.423144 
-335.838000 	 -0.388706 
-334.840900 	 -0.353805 
-333.835900 	 -0.318980 
-332.860900 	 -0.287449 
-331.891000 	 -0.253955 
-330.910000 	 -0.216977 
-329.917800 	 -0.181474 
-328.910300 	 -0.142009 
-327.904700 	 -0.101201 
-326.900600 	 -0.063021 
-325.900400 	 -0.024057 
-324.892200 	 0.013505 
-323.899800 	 0.051944 
-322.885400 	 0.087723 
-321.876200 	 0.122601 
-320.900300 	 0.158685 
-319.901300 	 0.192770 
-318.917100 	 0.230600 
-317.916600 	 0.273907 
-316.895600 	 0.313956 
-315.901900 	 0.354494 
-314.889200 	 0.394520 
-313.888800 	 0.428773 
-312.889900 	 0.464907 
-311.862300 	 0.501000 
-310.843800 	 0.536665 
-309.832600 	 0.572612 
-308.845500 	 0.606264 
-307.856800 	 0.641110 
-306.866800 	 0.674917 
-305.856300 	 0.709142 
-304.828500 	 0.745498 
-303.848300 	 0.776760 
-302.861300 	 0.805959 
-301.885900 	 0.836323 
-300.910700 	 0.861676 
-299.886200 	 0.889696 
-298.896500 	 0.919109 
-297.908100 	 0.943268 
-296.901100 	 0.971602 
-295.930100 	 0.997507 
-294.931600 	 1.022750 
-293.936700 	 1.049428 
-292.935200 	 1.073121 
-291.934200 	 1.095791 
-290.935800 	 1.115773 
-289.936400 	 1.134284 
-288.944400 	 1.152871 
-287.928600 	 1.170465 
-286.927200 	 1.188619 
-285.908800 	 1.207680 
-284.900100 	 1.222419 
-283.899700 	 1.236130 
-282.894000 	 1.249561 
-281.917000 	 1.257180 
-280.929800 	 1.267077 
-279.917700 	 1.276136 
-278.926500 	 1.281479 
-277.922800 	 1.288413 
-276.930200 	 1.294469 
-275.955900 	 1.299570 
-274.949400 	 1.303586 
-273.954800 	 1.307320 
-272.937800 	 1.312458 
-271.936800 	 1.314160 
-270.925300 	 1.314620 
-269.887000 	 1.316653 
-268.905600 	 1.310033 
-267.876500 	 1.305583 
-266.864700 	 1.301390 
-265.891900 	 1.292434 
-264.881900 	 1.285784 
-263.910400 	 1.277289 
-262.923000 	 1.266886 
-261.918500 	 1.260760 
-260.912700 	 1.252546 
-259.890200 	 1.245532 
-258.883400 	 1.236427 
-257.862700 	 1.221757 
-256.868800 	 1.205548 
-255.886700 	 1.186369 
-254.912700 	 1.169191 
-253.916100 	 1.156142 
-252.920400 	 1.140710 
-251.918500 	 1.127831 
-250.882300 	 1.113940 
-249.883800 	 1.094141 
-248.884600 	 1.079267 
-247.872200 	 1.063248 
-246.910800 	 1.044057 
-245.918800 	 1.025969 
-244.929000 	 1.005609 
-243.934000 	 0.984058 
-242.925000 	 0.965711 
-241.934100 	 0.949553 
-240.893300 	 0.935329 
-239.881400 	 0.918435 
-238.886100 	 0.899959 
-237.874700 	 0.881663 
-236.883900 	 0.857587 
-235.877500 	 0.837514 
-234.861700 	 0.820338 
-233.882200 	 0.798437 
-232.877600 	 0.782044 
-231.885000 	 0.765514 
-230.886600 	 0.746237 
-229.881000 	 0.729553 
-228.905000 	 0.712781 
-227.910600 	 0.694280 
-226.919600 	 0.674678 
-225.916000 	 0.655041 
-224.908900 	 0.636177 
-223.923800 	 0.616662 
-222.935900 	 0.601003 
-221.919000 	 0.589853 
-220.917300 	 0.574944 
-219.907900 	 0.561713 
-218.899300 	 0.547426 
-217.921700 	 0.527824 
-216.912900 	 0.511768 
-215.920400 	 0.497244 
-214.900000 	 0.482102 
-213.903600 	 0.468205 
-212.921400 	 0.455287 
-211.910800 	 0.441221 
-210.917100 	 0.428794 
-209.886000 	 0.416374 
-208.864000 	 0.405508 
-207.872300 	 0.391165 
-206.886100 	 0.375940 
-205.897000 	 0.363092 
-204.908200 	 0.347557 
-203.892400 	 0.338084 
-202.884900 	 0.330885 
-201.889000 	 0.320291 
-200.905200 	 0.310128 
-199.919500 	 0.298440 
-198.928100 	 0.284841 
-197.950600 	 0.274330 
-196.944200 	 0.264680 
-195.931100 	 0.256418 
-194.928100 	 0.248773 
-193.918000 	 0.240567 
-192.928000 	 0.235301 
-191.950200 	 0.228218 
-190.938500 	 0.222378 
-189.932600 	 0.218280 
-188.934100 	 0.209757 
-187.939200 	 0.202102 
-186.950200 	 0.195846 
-185.964200 	 0.186948 
-184.966000 	 0.182012 
-183.980500 	 0.178074 
-182.983500 	 0.173163 
-181.973500 	 0.169752 
-180.949900 	 0.164964 
-179.921300 	 0.160742 
-178.934900 	 0.156504 
-177.932400 	 0.152137 
-176.944300 	 0.150697 
-175.962300 	 0.146000 
-174.963000 	 0.141918 
-173.977400 	 0.139790 
-172.978300 	 0.134579 
-171.977200 	 0.133802 
-170.966400 	 0.134608 
-169.944800 	 0.133073 
-168.948200 	 0.132685 
-167.926100 	 0.130234 
-166.949800 	 0.126112 
-165.962700 	 0.125651 
-164.958900 	 0.125094 
-163.985600 	 0.125361 
-162.951700 	 0.125442 
-161.947500 	 0.122831 
-160.945200 	 0.122064 
-159.917600 	 0.120457 
-158.914200 	 0.120754 
-157.897100 	 0.123470 
-156.889200 	 0.122074 
-155.889200 	 0.122313 
-154.896300 	 0.122725 
-153.919900 	 0.121361 
-152.932500 	 0.125225 
-151.933300 	 0.127665 
-150.932500 	 0.127901 
-149.933500 	 0.128747 
-148.947100 	 0.127188 
-147.986100 	 0.126314 
-147.004500 	 0.126963 
-146.003800 	 0.128555 
-144.985000 	 0.131796 
-143.977100 	 0.133592 
-142.967600 	 0.138092 
-141.963000 	 0.143290 
-140.969100 	 0.143213 
-139.985300 	 0.146062 
-138.995300 	 0.148181 
-138.005600 	 0.148894 
-136.982500 	 0.152037 
-135.951000 	 0.155092 
-134.945300 	 0.158049 
-133.938800 	 0.163538 
-132.973300 	 0.167943 
-131.972300 	 0.173133 
-130.982600 	 0.174712 
-129.984400 	 0.175799 
-128.994800 	 0.180739 
-128.031700 	 0.183521 
-127.031100 	 0.188419 
-126.021600 	 0.192147 
-125.021300 	 0.193342 
-123.999000 	 0.198085 
-122.994400 	 0.203779 
-122.013400 	 0.204798 
-120.995700 	 0.210960 
-119.983300 	 0.215116 
-118.980700 	 0.218352 
-117.982100 	 0.225540 
-116.984400 	 0.231760 
-115.981400 	 0.237225 
-114.985200 	 0.242247 
-113.972900 	 0.248025 
-112.960900 	 0.252262 
-111.971100 	 0.253780 
-110.969300 	 0.257463 
-109.960300 	 0.264319 
-108.969200 	 0.267159 
-107.956400 	 0.275867 
-106.934200 	 0.288506 
-105.926300 	 0.296596 
-104.900600 	 0.305018 
-103.901200 	 0.308571 
-102.912200 	 0.306127 
-101.922400 	 0.305320 
-100.934500 	 0.308706 
-99.928360 	 0.313477 
-98.928450 	 0.320190 
-97.941390 	 0.325937 
-96.942490 	 0.331741 
-95.951100 	 0.340062 
-94.949940 	 0.344915 
-93.959720 	 0.354366 
-92.953090 	 0.358263 
-91.943510 	 0.359955 
-90.936730 	 0.367075 
-89.929080 	 0.368679 
-88.953210 	 0.376721 
-87.972660 	 0.385949 
-86.976720 	 0.392836 
-85.969730 	 0.399151 
-84.966960 	 0.402380 
-83.953640 	 0.407707 
-82.957400 	 0.412136 
-81.973950 	 0.417501 
-80.954420 	 0.427071 
-79.958740 	 0.432514 
-78.958050 	 0.438383 
-77.955140 	 0.450227 
-76.987320 	 0.454791 
-75.993440 	 0.461277 
-74.993870 	 0.468942 
-73.989120 	 0.469158 
-72.977970 	 0.473919 
-71.979410 	 0.478876 
-70.992040 	 0.482157 
-70.004650 	 0.491384 
-69.024800 	 0.499312 
-68.007550 	 0.509220 
-67.008040 	 0.518672 
-65.996980 	 0.523248 
-64.969320 	 0.530994 
-63.990540 	 0.535550 
-62.982500 	 0.539604 
-61.968660 	 0.549899 
-60.983820 	 0.549424 
-59.980340 	 0.554944 
-58.982470 	 0.561399 
-57.991660 	 0.562352 
-56.980380 	 0.575327 
-55.957700 	 0.583796 
-54.932400 	 0.591688 
-53.918520 	 0.602670 
-52.910840 	 0.607803 
-51.936170 	 0.613152 
-50.964570 	 0.617080 
-49.966910 	 0.618982 
-48.983120 	 0.624095 
-47.981590 	 0.626479 
-46.986410 	 0.633723 
-45.985420 	 0.644749 
-44.965360 	 0.652460 
-43.966040 	 0.665707 
-42.956120 	 0.676170 
-41.962240 	 0.679777 
-40.969190 	 0.687612 
-39.951330 	 0.693064 
-38.950780 	 0.698607 
-37.944580 	 0.711454 
-36.956970 	 0.722924 
-35.950040 	 0.737161 
-34.944660 	 0.754077 
-33.951940 	 0.769820 
-32.951550 	 0.782099 
-31.989960 	 0.783258 
-31.005510 	 0.780142 
-29.987700 	 0.780625 
-28.984980 	 0.778510 
-27.976560 	 0.787830 
-26.958150 	 0.796646 
-25.977410 	 0.795702 
-24.966730 	 0.804356 
-23.953770 	 0.813422 
-22.961120 	 0.825619 
-21.975150 	 0.844274 
-20.980980 	 0.859034 
-19.972820 	 0.871597 
-18.983310 	 0.883073 
-17.966450 	 0.897040 
-16.955140 	 0.916681 
-15.947050 	 0.928526 
-14.941830 	 0.940541 
-13.936720 	 0.947596 
-12.947030 	 0.941508 
-11.965690 	 0.942804 
-10.950850 	 0.946814 
-9.964207 	 0.947659 
-8.969952 	 0.956836 
-7.952698 	 0.967750 
-6.953457 	 0.976568 
-5.939869 	 0.992309 
-4.914724 	 1.006254 
-3.924993 	 1.008992 
-2.950915 	 1.014157 
-1.974128 	 1.018858 
-1.020060 	 1.026840 
-0.062888 	 1.042322 
0.924911 	 1.056806 
1.916854 	 1.074756 
2.913519 	 1.085053 
3.916243 	 1.099531 
4.936600 	 1.115408 
5.930293 	 1.124111 
6.933001 	 1.139929 
7.936319 	 1.154634 
8.912363 	 1.169377 
9.907443 	 1.185419 
10.896170 	 1.201130 
11.894580 	 1.219002 
12.883300 	 1.235085 
13.878280 	 1.252102 
14.879870 	 1.271809 
15.870200 	 1.288221 
16.857830 	 1.310759 
17.869960 	 1.336242 
18.865210 	 1.356319 
19.861580 	 1.378070 
20.883720 	 1.399571 
21.853490 	 1.413252 
22.856890 	 1.431211 
23.862040 	 1.451854 
24.832020 	 1.467281 
25.824200 	 1.490325 
26.809290 	 1.514323 
27.791040 	 1.538455 
28.804050 	 1.562001 
29.816120 	 1.590074 
30.829610 	 1.618524 
31.838540 	 1.644753 
32.838350 	 1.672047 
33.862080 	 1.702953 
34.865720 	 1.728859 
35.869290 	 1.756795 
36.872010 	 1.788482 
37.851270 	 1.812997 
38.842440 	 1.843262 
39.852020 	 1.874630 
40.846170 	 1.904741 
41.851620 	 1.936874 
42.855770 	 1.964271 
43.848550 	 1.995267 
44.844410 	 2.028553 
45.853190 	 2.062762 
46.870460 	 2.106410 
47.886380 	 2.143701 
48.907030 	 2.175879 
49.913780 	 2.214327 
50.889370 	 2.244097 
51.868960 	 2.280288 
52.872670 	 2.320041 
53.854080 	 2.351857 
54.852920 	 2.392045 
55.849540 	 2.430290 
56.836550 	 2.470727 
57.849920 	 2.519591 
58.860770 	 2.564745 
59.883370 	 2.611983 
60.899540 	 2.656754 
61.881310 	 2.694435 
62.883480 	 2.731708 
63.848320 	 2.770476 
64.812060 	 2.812916 
65.829130 	 2.861721 
66.823780 	 2.908262 
67.837570 	 2.958292 
68.860830 	 3.009197 
69.853550 	 3.053140 
70.848500 	 3.105182 
71.865720 	 3.151677 
72.855240 	 3.193075 
73.849610 	 3.236862 
74.840770 	 3.274971 
75.828360 	 3.313827 
76.834760 	 3.356827 
77.833390 	 3.402474 
78.856790 	 3.451126 
79.866070 	 3.493721 
80.852100 	 3.533992 
81.847170 	 3.574187 
82.813260 	 3.605147 
83.789400 	 3.641342 
84.813850 	 3.684539 
85.834780 	 3.719043 
86.836980 	 3.760076 
87.864670 	 3.800824 
88.860420 	 3.831783 
89.860400 	 3.867512 
90.876910 	 3.902591 
91.873000 	 3.933471 
92.862480 	 3.961945 
93.840620 	 3.989165 
94.860900 	 4.020223 
95.864260 	 4.051159 
96.869040 	 4.089815 
97.908040 	 4.135368 
98.905710 	 4.168369 
99.892660 	 4.201657 
100.897200 	 4.232608 
101.868600 	 4.247471 
102.842300 	 4.275019 
103.839100 	 4.305400 
104.827400 	 4.333390 
105.813600 	 4.372368 
106.822500 	 4.408237 
107.831900 	 4.446232 
108.840300 	 4.485396 
109.845900 	 4.522229 
110.853400 	 4.564219 
111.833500 	 4.594823 
112.824400 	 4.623127 
113.837600 	 4.658174 
114.803100 	 4.683052 
115.799900 	 4.718462 
116.798900 	 4.762653 
117.785900 	 4.796066 
118.788800 	 4.840492 
119.804200 	 4.881878 
120.796500 	 4.915925 
121.789400 	 4.956614 
122.823500 	 4.989334 
123.828900 	 5.023611 
124.825900 	 5.056237 
125.821400 	 5.085299 
126.800500 	 5.119915 
127.790800 	 5.153650 
128.785900 	 5.190271 
129.794100 	 5.234432 
130.793200 	 5.266975 
131.785400 	 5.297670 
132.789200 	 5.329373 
133.780000 	 5.354493 
134.766700 	 5.388942 
135.760400 	 5.426667 
136.770300 	 5.463746 
137.785800 	 5.503012 
138.819200 	 5.536855 
139.814200 	 5.569440 
140.805700 	 5.601306 
141.788500 	 5.629697 
142.765500 	 5.663091 
143.769000 	 5.691620 
144.786000 	 5.722224 
145.797700 	 5.760949 
146.795000 	 5.796234 
147.815300 	 5.840076 
148.828700 	 5.885749 
149.819500 	 5.920832 
150.837000 	 5.956268 
151.837600 	 5.984902 
152.810600 	 6.004616 
153.822600 	 6.032605 
154.804000 	 6.061527 
155.789900 	 6.095216 
156.814500 	 6.135104 
157.801600 	 6.173810 
158.800400 	 6.214266 
159.793000 	 6.248114 
160.783400 	 6.282739 
161.800800 	 6.313768 
162.813800 	 6.335531 
163.823900 	 6.362320 
164.814300 	 6.389143 
165.800500 	 6.413025 
166.780600 	 6.447960 
167.787300 	 6.481887 
168.777100 	 6.508697 
169.775400 	 6.542397 
170.797900 	 6.565312 
171.780900 	 6.585348 
172.784600 	 6.605823 
173.771900 	 6.624493 
174.783100 	 6.650908 
175.805300 	 6.670356 
176.794300 	 6.689796 
177.795300 	 6.708609 
178.757500 	 6.719017 
179.754900 	 6.735717 
180.770800 	 6.756066 
181.771300 	 6.763906 
182.788500 	 6.781199 
183.792200 	 6.799067 
184.795500 	 6.808556 
185.795800 	 6.826625 
186.814500 	 6.836484 
187.793600 	 6.841449 
188.781100 	 6.847441 
189.790200 	 6.849642 
190.781000 	 6.854224 
191.792800 	 6.858144 
192.802600 	 6.870134 
193.826900 	 6.885277 
194.810600 	 6.890750 
195.794500 	 6.897884 
196.819400 	 6.900517 
197.809600 	 6.891798 
198.806700 	 6.893270 
199.825700 	 6.895880 
200.823400 	 6.892619 
201.820000 	 6.895623 
202.835200 	 6.896913 
203.843800 	 6.894934 
204.821100 	 6.893486 
205.812000 	 6.892433 
206.801800 	 6.891088 
207.797600 	 6.881701 
208.789400 	 6.875546 
209.793500 	 6.872313 
210.789800 	 6.861631 
211.769900 	 6.860067 
212.776300 	 6.863298 
213.778800 	 6.857128 
214.783900 	 6.855064 
215.800800 	 6.850776 
216.792400 	 6.837972 
217.754700 	 6.827137 
218.752300 	 6.817701 
219.743800 	 6.810839 
220.759000 	 6.803784 
221.790200 	 6.800288 
222.773800 	 6.797627 
223.773900 	 6.789560 
224.761600 	 6.782150 
225.783500 	 6.778441 
226.794000 	 6.765007 
227.787800 	 6.750613 
228.798200 	 6.739416 
229.766300 	 6.720245 
230.751000 	 6.710663 
231.726500 	 6.706115 
232.721600 	 6.699779 
233.735300 	 6.694334 
234.750300 	 6.684740 
235.765300 	 6.673038 
236.745600 	 6.657917 
237.747300 	 6.643670 
238.765300 	 6.635262 
239.764500 	 6.622400 
240.764700 	 6.610932 
241.749700 	 6.603745 
242.718900 	 6.590151 
243.718800 	 6.582215 
244.749200 	 6.576407 
245.740400 	 6.563649 
246.747100 	 6.552347 
247.758100 	 6.539094 
248.719500 	 6.523357 
249.737000 	 6.512083 
250.730500 	 6.501138 
251.731900 	 6.491952 
252.762200 	 6.482965 
253.751800 	 6.470562 
254.782500 	 6.459285 
255.771100 	 6.444996 
256.774000 	 6.431133 
257.784400 	 6.421487 
258.770000 	 6.407404 
259.782000 	 6.396419 
260.766200 	 6.386303 
261.751600 	 6.372098 
262.732800 	 6.364137 
263.714600 	 6.354517 
264.738200 	 6.343927 
265.748400 	 6.334069 
266.764500 	 6.319841 
267.749600 	 6.304728 
268.719100 	 6.291201 
269.720300 	 6.279669 
270.710200 	 6.273232 
271.768300 	 6.266676 
272.772300 	 6.257787 
273.775800 	 6.249958 
274.776400 	 6.235715 
275.747300 	 6.224887 
276.751700 	 6.216262 
277.748800 	 6.201807 
278.756400 	 6.192307 
279.741300 	 6.180718 
280.738600 	 6.168417 
281.713900 	 6.162293 
282.704400 	 6.156213 
283.707400 	 6.150023 
284.721900 	 6.142430 
285.740100 	 6.132510 
286.741100 	 6.122355 
287.743800 	 6.110937 
288.718100 	 6.102489 
289.728500 	 6.097326 
290.725700 	 6.087713 
291.732700 	 6.082339 
292.743600 	 6.076717 
293.728500 	 6.066921 
294.744000 	 6.063005 
295.753100 	 6.057642 
296.751000 	 6.049550 
297.752600 	 6.043854 
298.725200 	 6.036291 
299.709400 	 6.028186 
300.721100 	 6.022238 
301.725300 	 6.016870 
302.779800 	 6.015779 
303.796800 	 6.010299 
304.800500 	 6.004849 
305.802200 	 6.000021 
306.772300 	 5.987658 
307.779100 	 5.982154 
308.769100 	 5.977873 
309.758100 	 5.970418 
310.752000 	 5.966927 
311.734300 	 5.962692 
312.723800 	 5.956813 
313.736300 	 5.953926 
314.732300 	 5.948068 
315.751400 	 5.946228 
316.752900 	 5.942827 
317.737300 	 5.935746 
318.727200 	 5.933749 
319.698200 	 5.926406 
320.696800 	 5.922015 
321.707500 	 5.924850 
322.702900 	 5.919236 
323.701200 	 5.916667 
324.713200 	 5.917707 
325.693200 	 5.911370 
326.702600 	 5.911868 
327.696700 	 5.911263 
328.690800 	 5.905294 
329.709900 	 5.904920 
330.710300 	 5.902339 
331.715100 	 5.901759 
332.692300 	 5.902486 
333.677600 	 5.900830 
334.677600 	 5.902385 
335.674900 	 5.900420 
336.686200 	 5.897458 
337.693000 	 5.897156 
338.706400 	 5.895012 
339.707400 	 5.895188 
340.723400 	 5.899220 
341.721400 	 5.901161 
342.721100 	 5.904833 
343.727900 	 5.907203 
344.718600 	 5.906753 
345.729000 	 5.907531 
346.722700 	 5.907847 
347.736800 	 5.907198 
348.742500 	 5.907282 
349.725700 	 5.906265 
350.719100 	 5.907565 
351.717700 	 5.908922 
352.714100 	 5.915059 
353.743800 	 5.922101 
354.769900 	 5.924971 
355.772900 	 5.928668 
356.775000 	 5.929215 
357.754500 	 5.926014 
358.739300 	 5.928002 
359.717200 	 5.931404 
360.710000 	 5.932809 
361.703500 	 5.937366 
362.694300 	 5.940842 
363.699500 	 5.943614 
364.704700 	 5.947175 
365.699600 	 5.951570 
366.732500 	 5.957104 
367.725100 	 5.957375 
368.740700 	 5.960186 
369.769700 	 5.965364 
370.719400 	 5.966779 
371.720800 	 5.974814 
372.715100 	 5.983006 
373.706000 	 5.984989 
374.734200 	 5.989932 
375.743300 	 5.994081 
376.737400 	 5.995894 
377.730300 	 6.001311 
378.740400 	 6.006454 
379.735500 	 6.012362 
380.726400 	 6.017274 
381.719500 	 6.023268 
382.706700 	 6.030216 
383.717500 	 6.034716 
384.711900 	 6.041114 
385.736200 	 6.048631 
386.729400 	 6.050890 
387.711400 	 6.054989 
388.727900 	 6.061156 
389.717600 	 6.063724 
390.713000 	 6.071899 
391.744500 	 6.081907 
392.748100 	 6.091496 
393.751600 	 6.101994 
394.775400 	 6.109918 
395.763600 	 6.116161 
396.753300 	 6.120880 
397.741800 	 6.126134 
398.259900 	 6.032183 
398.299900 	 5.886272 
397.835200 	 5.696306 
396.892900 	 5.470270 
395.916300 	 5.310378 
394.934800 	 5.169608 
393.952400 	 5.041680 
392.936200 	 4.921239 
391.923200 	 4.809621 
390.887200 	 4.703464 
389.870300 	 4.606177 
388.878100 	 4.518094 
387.865900 	 4.431811 
386.852500 	 4.354416 
385.871300 	 4.281409 
384.864900 	 4.207366 
383.884000 	 4.140200 
382.917300 	 4.074503 
381.934500 	 4.008117 
380.911700 	 3.945853 
379.901800 	 3.884820 
378.910900 	 3.827118 
377.883600 	 3.773344 
376.902500 	 3.723454 
375.898000 	 3.677432 
374.871200 	 3.627521 
373.861000 	 3.583209 
372.859800 	 3.540328 
371.861000 	 3.494425 
370.852800 	 3.454885 
369.866300 	 3.415060 
368.867100 	 3.373356 
367.872800 	 3.337348 
366.884300 	 3.302802 
365.898300 	 3.266385 
364.910300 	 3.233421 
363.901800 	 3.198841 
362.904700 	 3.164459 
361.884700 	 3.130694 
360.898500 	 3.096914 
359.913800 	 3.066178 
358.920600 	 3.034906 
357.936300 	 3.006766 
356.926500 	 2.981473 
355.919200 	 2.953574 
354.930400 	 2.926828 
353.919100 	 2.900535 
352.908900 	 2.871923 
351.904800 	 2.846121 
350.902400 	 2.821324 
349.890200 	 2.796118 
348.890800 	 2.773251 
347.892300 	 2.749939 
346.876200 	 2.728518 
345.881000 	 2.704796 
344.879600 	 2.680473 
343.877900 	 2.657554 
342.869500 	 2.631896 
341.861200 	 2.608050 
340.866800 	 2.586422 
339.847000 	 2.562565 
338.853200 	 2.540932 
337.847700 	 2.523021 
336.834800 	 2.502010 
335.844200 	 2.484853 
334.840100 	 2.467727 
333.847500 	 2.448003 
332.866600 	 2.430381 
331.906900 	 2.410740 
330.927200 	 2.390800 
329.931900 	 2.369896 
328.910700 	 2.348965 
327.871200 	 2.331200 
326.852800 	 2.311650 
325.850300 	 2.294173 
324.850700 	 2.277160 
323.847800 	 2.256188 
322.853500 	 2.238929 
321.843100 	 2.221068 
320.845900 	 2.201895 
319.884400 	 2.185270 
318.893700 	 2.166630 
317.903000 	 2.148159 
316.880100 	 2.130226 
315.857600 	 2.112086 
314.846500 	 2.094710 
313.847400 	 2.078956 
312.868400 	 2.063618 
311.883800 	 2.048969 
310.890000 	 2.031835 
309.879200 	 2.012387 
308.898700 	 1.996292 
307.907600 	 1.975863 
306.919500 	 1.959911 
305.960700 	 1.945641 
304.952100 	 1.924600 
303.942100 	 1.907458 
302.924300 	 1.888001 
301.904100 	 1.866395 
300.897700 	 1.847794 
299.879700 	 1.828830 
298.877600 	 1.810008 
297.870700 	 1.791638 
296.882900 	 1.775415 
295.898100 	 1.759695 
294.903000 	 1.742648 
293.901400 	 1.726526 
292.903500 	 1.709460 
291.890200 	 1.686964 
290.877700 	 1.667127 
289.867600 	 1.647103 
288.838300 	 1.625422 
287.841700 	 1.608322 
286.837200 	 1.590876 
285.853100 	 1.572906 
284.858700 	 1.554742 
283.869500 	 1.535888 
282.910200 	 1.516616 
281.906700 	 1.495798 
280.902600 	 1.474955 
279.901100 	 1.455262 
278.872800 	 1.431709 
277.877400 	 1.410066 
276.902400 	 1.392691 
275.891500 	 1.370379 
274.897300 	 1.350926 
273.920800 	 1.331436 
272.925700 	 1.305560 
271.930700 	 1.281342 
270.939300 	 1.257513 
269.918000 	 1.232885 
268.911200 	 1.211236 
267.902300 	 1.190244 
266.885800 	 1.169517 
265.883900 	 1.146859 
264.885300 	 1.122604 
263.904100 	 1.099426 
262.906900 	 1.072494 
261.912700 	 1.045411 
260.912100 	 1.020320 
259.910300 	 0.990615 
258.920600 	 0.964045 
257.919800 	 0.940629 
256.924400 	 0.915401 
255.934400 	 0.893278 
254.949900 	 0.868652 
253.946600 	 0.838047 
252.966300 	 0.806291 
251.951700 	 0.770160 
250.933100 	 0.734872 
249.925500 	 0.702143 
248.889800 	 0.669803 
247.880300 	 0.641836 
246.870800 	 0.612527 
245.881000 	 0.583115 
244.905900 	 0.555043 
243.914500 	 0.521198 
242.938400 	 0.488040 
241.954900 	 0.453838 
240.916700 	 0.412021 
239.921900 	 0.373959 
238.899900 	 0.335728 
237.888800 	 0.297095 
236.898600 	 0.265165 
235.889700 	 0.229932 
234.906700 	 0.192234 
233.902000 	 0.151367 
232.912600 	 0.107305 
231.924000 	 0.064008 
230.924000 	 0.018909 
229.938900 	 -0.023301 
228.965300 	 -0.061441 
227.963400 	 -0.107145 
226.966200 	 -0.149701 
225.948800 	 -0.192400 
224.944300 	 -0.243137 
223.945700 	 -0.287173 
222.951600 	 -0.334118 
221.967600 	 -0.387962 
220.961100 	 -0.439377 
219.968600 	 -0.492082 
218.957800 	 -0.543857 
217.952100 	 -0.592423 
216.943200 	 -0.639232 
215.948400 	 -0.687063 
214.951000 	 -0.743570 
213.942800 	 -0.802102 
212.939400 	 -0.859144 
211.930800 	 -0.925484 
210.923600 	 -0.983987 
209.933200 	 -1.038908 
208.959300 	 -1.102697 
207.964400 	 -1.159147 
206.983700 	 -1.214591 
206.004400 	 -1.273323 
205.008600 	 -1.327484 
204.029800 	 -1.383744 
203.038700 	 -1.444792 
202.042900 	 -1.514259 
201.031700 	 -1.587605 
200.035300 	 -1.657492 
198.998100 	 -1.731394 
197.965400 	 -1.798624 
196.981800 	 -1.855684 
195.940000 	 -1.924348 
194.976400 	 -1.990402 
193.974200 	 -2.055950 
192.951500 	 -2.132426 
191.972000 	 -2.202934 
190.954400 	 -2.271187 
189.957900 	 -2.344621 
188.943400 	 -2.416152 
187.927000 	 -2.487894 
186.913200 	 -2.555762 
185.930700 	 -2.619094 
184.950100 	 -2.683401 
183.956700 	 -2.743389 
182.968300 	 -2.814938 
181.958400 	 -2.890336 
180.983500 	 -2.958532 
179.972900 	 -3.033924 
178.979200 	 -3.100922 
177.976800 	 -3.160010 
176.949800 	 -3.230669 
175.945800 	 -3.298801 
174.936200 	 -3.368536 
173.928900 	 -3.440819 
172.926400 	 -3.505240 
171.927500 	 -3.566449 
170.951200 	 -3.627078 
169.937900 	 -3.690940 
168.932300 	 -3.755315 
167.946500 	 -3.814319 
166.923100 	 -3.875592 
165.930600 	 -3.932806 
164.932000 	 -3.982243 
163.931100 	 -4.042572 
162.922100 	 -4.100064 
161.929300 	 -4.149169 
160.932800 	 -4.206071 
159.932000 	 -4.253702 
158.931100 	 -4.298473 
157.938000 	 -4.351336 
156.935000 	 -4.396906 
155.928600 	 -4.444179 
154.964200 	 -4.482086 
153.979800 	 -4.516136 
152.969000 	 -4.552158 
151.992800 	 -4.583088 
150.968000 	 -4.633449 
149.955200 	 -4.682104 
148.970100 	 -4.723283 
147.956100 	 -4.768589 
146.959200 	 -4.796339 
145.962700 	 -4.815000 
144.969200 	 -4.845769 
143.963400 	 -4.870804 
142.963500 	 -4.898075 
141.955500 	 -4.933130 
140.926400 	 -4.961709 
139.936200 	 -4.985206 
138.937100 	 -5.007331 
137.929600 	 -5.029766 
136.946200 	 -5.048248 
135.952200 	 -5.059962 
134.944900 	 -5.074585 
133.953600 	 -5.085555 
132.957500 	 -5.090810 
131.967500 	 -5.111789 
130.985400 	 -5.131992 
129.973300 	 -5.145159 
128.973000 	 -5.163015 
127.944200 	 -5.168474 
126.931200 	 -5.165904 
125.954300 	 -5.168531 
124.950600 	 -5.173211 
123.970000 	 -5.183877 
122.977200 	 -5.195812 
121.958100 	 -5.209845 
120.973200 	 -5.222603 
119.963300 	 -5.227481 
118.961500 	 -5.236124 
117.971300 	 -5.241719 
116.970700 	 -5.237316 
115.968100 	 -5.237657 
114.973600 	 -5.233922 
113.993200 	 -5.226107 
113.002000 	 -5.232290 
112.002100 	 -5.238286 
111.003100 	 -5.246841 
109.998000 	 -5.256305 
108.981200 	 -5.256786 
107.975300 	 -5.255677 
106.964000 	 -5.249987 
105.958700 	 -5.246809 
104.960800 	 -5.246651 
103.994200 	 -5.243145 
103.004500 	 -5.243406 
102.019200 	 -5.243806 
101.034500 	 -5.240893 
100.039400 	 -5.247232 
99.047580 	 -5.251850 
98.038850 	 -5.253032 
97.021810 	 -5.256493 
95.989080 	 -5.248207 
94.996470 	 -5.239380 
93.983050 	 -5.234570 
93.008440 	 -5.228639 
92.017400 	 -5.229510 
91.000260 	 -5.230046 
90.013440 	 -5.225471 
88.987700 	 -5.220381 
87.995900 	 -5.210659 
86.983570 	 -5.203171 
85.958870 	 -5.196238 
84.966630 	 -5.186005 
83.969570 	 -5.180486 
82.983490 	 -5.169243 
82.010060 	 -5.158272 
80.999210 	 -5.155124 
79.986410 	 -5.145642 
78.980960 	 -5.136530 
77.968250 	 -5.126661 
76.976040 	 -5.106206 
76.000150 	 -5.084909 
75.015110 	 -5.063815 
74.041490 	 -5.044270 
73.034510 	 -5.030575 
72.024870 	 -5.016747 
71.018200 	 -5.005793 
69.983510 	 -4.992738 
69.015880 	 -4.971345 
68.010450 	 -4.955934 
66.995000 	 -4.932535 
66.004580 	 -4.906309 
64.996370 	 -4.885675 
63.996370 	 -4.857593 
63.023250 	 -4.829698 
62.031420 	 -4.808165 
61.017520 	 -4.785772 
60.007430 	 -4.763813 
58.988100 	 -4.741802 
57.967540 	 -4.712672 
56.980240 	 -4.679832 
56.004150 	 -4.641570 
55.002110 	 -4.608526 
54.012080 	 -4.575142 
53.009660 	 -4.540214 
52.001530 	 -4.514126 
51.007910 	 -4.481408 
50.030280 	 -4.446434 
49.040870 	 -4.418370 
48.034690 	 -4.385016 
47.032740 	 -4.350152 
46.039410 	 -4.317113 
45.034470 	 -4.278344 
44.028900 	 -4.239363 
43.032310 	 -4.202709 
41.998020 	 -4.169236 
40.965380 	 -4.138398 
39.955220 	 -4.101933 
38.961020 	 -4.068228 
37.975710 	 -4.028167 
36.993530 	 -3.982533 
35.992720 	 -3.947776 
34.982780 	 -3.910657 
33.985240 	 -3.874808 
32.982860 	 -3.844801 
31.996220 	 -3.810069 
31.012300 	 -3.774431 
30.002490 	 -3.742346 
29.015130 	 -3.707956 
28.021080 	 -3.674736 
27.012040 	 -3.638758 
26.042680 	 -3.602564 
25.054860 	 -3.567672 
24.074180 	 -3.533166 
23.079550 	 -3.508607 
22.065320 	 -3.480899 
21.064370 	 -3.452676 
20.041840 	 -3.425940 
19.031170 	 -3.394244 
18.040330 	 -3.363518 
17.032660 	 -3.336247 
16.048460 	 -3.307578 
15.061120 	 -3.279958 
14.043870 	 -3.256459 
13.034690 	 -3.228720 
12.030790 	 -3.206722 
11.036120 	 -3.183750 
10.029880 	 -3.162981 
9.034721 	 -3.143927 
8.030413 	 -3.120351 
7.006076 	 -3.098601 
6.012861 	 -3.075263 
5.028035 	 -3.051696 
4.036521 	 -3.035146 
3.057720 	 -3.018660 
2.080802 	 -2.999730 
1.075370 	 -2.986919 
0.075040 	 -2.965154 
-0.909391 	 -2.945304 
-1.867290 	 -2.922016 
-2.813037 	 -2.902886 
-3.788800 	 -2.891287 
-4.755448 	 -2.880810 
-5.782146 	 -2.877750 
-6.805591 	 -2.870376 
-7.803824 	 -2.858882 
-8.814837 	 -2.853918 
-9.800027 	 -2.847652 
-10.814290 	 -2.837815 
-11.819000 	 -2.833885 
-12.826060 	 -2.822109 
-13.825730 	 -2.807138 
-14.803740 	 -2.804153 
-15.796960 	 -2.796024 
-16.797530 	 -2.791000 
-17.810060 	 -2.792228 
-18.822910 	 -2.788367 
-19.831250 	 -2.784195 
-20.821660 	 -2.780082 
-21.819190 	 -2.778634 
-22.823620 	 -2.776027 
-23.799560 	 -2.772357 
-24.799470 	 -2.771979 
-25.796360 	 -2.769977 
-26.769380 	 -2.764269 
-27.788140 	 -2.770159 
-28.793740 	 -2.775941 
-29.798790 	 -2.778824 
-30.829830 	 -2.787483 
-31.825110 	 -2.787987 
-32.852680 	 -2.786304 
-33.823070 	 -2.785619 
-34.807850 	 -2.785837 
-35.816290 	 -2.788146 
-36.776050 	 -2.789499 
-37.806760 	 -2.794695 
-38.807420 	 -2.800783 
-39.798410 	 -2.802105 
-40.820300 	 -2.809554 
-41.828360 	 -2.816442 
-42.826840 	 -2.817214 
-43.845730 	 -2.824094 
-44.842590 	 -2.826668 
-45.834800 	 -2.827985 
-46.845040 	 -2.836095 
-47.820300 	 -2.841696 
-48.816740 	 -2.849816 
-49.834210 	 -2.858174 
-50.826920 	 -2.862538 
-51.834320 	 -2.868233 
-52.802850 	 -2.871717 
-53.772960 	 -2.876514 
-54.766110 	 -2.884614 
-55.752280 	 -2.891136 
-56.771120 	 -2.900367 
-57.800900 	 -2.909731 
-58.813520 	 -2.915944 
-59.830370 	 -2.927437 
-60.842740 	 -2.935621 
-61.842540 	 -2.943519 
-62.846420 	 -2.953804 
-63.845070 	 -2.958330 
-64.822930 	 -2.964018 
-65.826690 	 -2.974126 
-66.829200 	 -2.982024 
-67.828800 	 -2.994849 
-68.864760 	 -3.007133 
-69.840420 	 -3.015767 
-70.837140 	 -3.025789 
-71.841450 	 -3.030942 
-72.819660 	 -3.039993 
-73.826080 	 -3.047273 
-74.816450 	 -3.054615 
-75.804680 	 -3.069227 
-76.806180 	 -3.079400 
-77.794000 	 -3.092152 
-78.782450 	 -3.109902 
-79.787200 	 -3.123299 
-80.795300 	 -3.137771 
-81.802150 	 -3.154033 
-82.813480 	 -3.163781 
-83.829190 	 -3.174038 
-84.817030 	 -3.185933 
-85.821910 	 -3.198725 
-86.821010 	 -3.214034 
-87.815940 	 -3.229477 
-88.822730 	 -3.248704 
-89.815280 	 -3.262661 
-90.795300 	 -3.275344 
-91.790680 	 -3.293138 
-92.780260 	 -3.305464 
-93.778240 	 -3.320082 
-94.808750 	 -3.340203 
-95.804780 	 -3.355556 
-96.801300 	 -3.372697 
-97.816230 	 -3.394002 
-98.806000 	 -3.412456 
-99.805390 	 -3.432513 
-100.820000 	 -3.451849 
-101.797900 	 -3.470521 
-102.794400 	 -3.487528 
-103.788800 	 -3.503743 
-104.780400 	 -3.524901 
-105.779800 	 -3.544092 
-106.771400 	 -3.563174 
-107.761000 	 -3.586016 
-108.772100 	 -3.605730 
-109.788800 	 -3.623179 
-110.792300 	 -3.645932 
-111.818600 	 -3.664445 
-112.820500 	 -3.682716 
-113.804900 	 -3.704140 
-114.815600 	 -3.724305 
-115.797000 	 -3.744964 
-116.790100 	 -3.767766 
-117.803800 	 -3.793564 
-118.812400 	 -3.818418 
-119.828300 	 -3.841576 
-120.836300 	 -3.864848 
-121.858500 	 -3.884977 
-122.847300 	 -3.900953 
-123.850000 	 -3.922817 
-124.852700 	 -3.942664 
-125.827000 	 -3.962083 
-126.836800 	 -3.986397 
-127.827200 	 -4.006898 
-128.804800 	 -4.027059 
-129.820100 	 -4.050241 
-130.811200 	 -4.073221 
-131.818900 	 -4.096832 
-132.842200 	 -4.121465 
-133.835100 	 -4.145314 
-134.843100 	 -4.167622 
-135.833200 	 -4.187191 
-136.822100 	 -4.211346 
-137.815500 	 -4.234465 
-138.825900 	 -4.254356 
-139.853200 	 -4.280531 
-140.843400 	 -4.298541 
-141.828800 	 -4.317814 
-142.822400 	 -4.342964 
-143.808900 	 -4.362209 
-144.805800 	 -4.387009 
-145.817100 	 -4.411274 
-146.804700 	 -4.432201 
-147.790100 	 -4.455321 
-148.800000 	 -4.476080 
-149.814400 	 -4.498094 
-150.828300 	 -4.520403 
-151.829500 	 -4.540910 
-152.828100 	 -4.563930 
-153.818500 	 -4.583608 
-154.778600 	 -4.603163 
-155.763000 	 -4.629384 
-156.769900 	 -4.652755 
-157.765700 	 -4.676872 
-158.802300 	 -4.707279 
-159.827500 	 -4.730069 
-160.809600 	 -4.752942 
-161.805600 	 -4.777692 
-162.814500 	 -4.797411 
-163.804300 	 -4.817117 
-164.818300 	 -4.838424 
-165.829800 	 -4.858819 
-166.811600 	 -4.880667 
-167.802400 	 -4.904357 
-168.799500 	 -4.931664 
-169.792800 	 -4.957921 
-170.798700 	 -4.981323 
-171.820600 	 -5.008517 
-172.840200 	 -5.030950 
-173.825100 	 -5.050968 
-174.802000 	 -5.076600 
-175.781100 	 -5.099150 
-176.752500 	 -5.122443 
-177.767400 	 -5.149634 
-178.777800 	 -5.175004 
-179.792000 	 -5.200204 
-180.811100 	 -5.225557 
-181.791500 	 -5.251908 
-182.794800 	 -5.277592 
-183.774500 	 -5.299528 
-184.763200 	 -5.325286 
-185.774200 	 -5.349361 
-186.766400 	 -5.372367 
-187.768700 	 -5.403480 
-188.771100 	 -5.432753 
-189.783100 	 -5.460793 
-190.791100 	 -5.491365 
-191.799000 	 -5.518092 
-192.791800 	 -5.543037 
-193.773900 	 -5.570004 
-194.770300 	 -5.595853 
-195.755900 	 -5.623106 
-196.759300 	 -5.650859 
-197.762400 	 -5.679301 
-198.767600 	 -5.711048 
-199.787700 	 -5.739476 
-200.772300 	 -5.771360 
-201.769300 	 -5.802026 
-202.738500 	 -5.826928 
-203.721600 	 -5.855359 
-204.714700 	 -5.881492 
-205.701600 	 -5.906986 
-206.690200 	 -5.937784 
-207.696300 	 -5.968082 
-208.722000 	 -5.998837 
-209.741400 	 -6.030322 
-210.776300 	 -6.056147 
-211.777900 	 -6.081146 
-212.768300 	 -6.102938 
-213.767500 	 -6.121940 
-214.758800 	 -6.142453 
-215.751400 	 -6.158327 
-216.751900 	 -6.175077 
-217.741800 	 -6.191481 
-218.733200 	 -6.206224 
-219.738800 	 -6.223988 
-220.738600 	 -6.238595 
-221.737800 	 -6.250908 
-222.759600 	 -6.262424 
-223.751700 	 -6.269678 
-224.747600 	 -6.276941 
-225.752300 	 -6.286651 
-226.747200 	 -6.294227 
-227.763000 	 -6.303699 
-228.770200 	 -6.313132 
-229.767900 	 -6.320090 
-230.771300 	 -6.326504 
-231.755300 	 -6.329210 
-232.764100 	 -6.333521 
-233.758000 	 -6.335486 
-234.763000 	 -6.336276 
-235.770600 	 -6.342032 
-236.753800 	 -6.343493 
-237.749100 	 -6.345547 
-238.730000 	 -6.353004 
-239.730000 	 -6.355677 
-240.751700 	 -6.358166 
-241.773400 	 -6.361260 
-242.787300 	 -6.359329 
-243.780200 	 -6.356804 
-244.755400 	 -6.356583 
-245.748300 	 -6.358158 
-246.750700 	 -6.359746 
-247.764200 	 -6.361561 
-248.790600 	 -6.365599 
-249.781100 	 -6.366529 
-250.772000 	 -6.363463 
-251.752100 	 -6.365021 
-252.741100 	 -6.360250 
-253.739200 	 -6.351956 
-254.749600 	 -6.348315 
-255.743000 	 -6.338988 
-256.710400 	 -6.329976 
-257.705100 	 -6.326284 
-258.681000 	 -6.322466 
-259.690200 	 -6.318391 
-260.722100 	 -6.313795 
-261.749600 	 -6.307787 
-262.775000 	 -6.299078 
-263.806700 	 -6.287381 
-264.803600 	 -6.278661 
-265.799600 	 -6.269171 
-266.785700 	 -6.255913 
-267.767000 	 -6.248060 
-268.770600 	 -6.238445 
-269.758800 	 -6.225914 
-270.771500 	 -6.218947 
-271.795600 	 -6.209096 
-272.794200 	 -6.197543 
-273.794000 	 -6.185310 
-274.792500 	 -6.170866 
-275.775300 	 -6.156760 
-276.763500 	 -6.142903 
-277.776900 	 -6.133020 
-278.778900 	 -6.125126 
-279.775300 	 -6.114734 
-280.778700 	 -6.105219 
-281.770400 	 -6.095544 
-282.738700 	 -6.080742 
-283.744800 	 -6.072543 
-284.750500 	 -6.066086 
-285.729900 	 -6.055812 
-286.762200 	 -6.050232 
-287.744800 	 -6.039701 
-288.732800 	 -6.025420 
-289.750700 	 -6.016439 
-290.744300 	 -6.005296 
-291.761400 	 -5.997589 
-292.775700 	 -5.988696 
-293.796600 	 -5.978755 
-294.781700 	 -5.968795 
-295.776500 	 -5.954242 
-296.780700 	 -5.944706 
-297.766200 	 -5.934587 
-298.786300 	 -5.922238 
-299.775700 	 -5.916522 
-300.756900 	 -5.904945 
-301.740600 	 -5.891526 
-302.739000 	 -5.882402 
-303.741600 	 -5.868968 
-304.742500 	 -5.856909 
-305.746900 	 -5.845914 
-306.713000 	 -5.831985 
-307.699500 	 -5.817571 
-308.684600 	 -5.802727 
-309.680300 	 -5.789466 
-310.703300 	 -5.777808 
-311.702800 	 -5.764160 
-312.701100 	 -5.753306 
-313.707000 	 -5.740896 
-314.697400 	 -5.724782 
-315.711800 	 -5.712231 
-316.727300 	 -5.698503 
-317.728000 	 -5.682542 
-318.736900 	 -5.669417 
-319.737100 	 -5.653067 
-320.742100 	 -5.635822 
-321.745800 	 -5.621757 
-322.742300 	 -5.606876 
-323.749500 	 -5.594973 
-324.759800 	 -5.581788 
-325.752200 	 -5.566499 
-326.762900 	 -5.551007 
-327.754200 	 -5.531425 
-328.744900 	 -5.512930 
-329.747200 	 -5.493472 
-330.726000 	 -5.472872 
-331.736900 	 -5.455246 
-332.728100 	 -5.436266 
-333.715600 	 -5.416624 
-334.728300 	 -5.400778 
-335.719900 	 -5.383010 
-336.722800 	 -5.366721 
-337.743900 	 -5.352033 
-338.735200 	 -5.333483 
-339.722500 	 -5.315797 
-340.726500 	 -5.297011 
-341.728700 	 -5.278322 
-342.759300 	 -5.260577 
-343.767600 	 -5.241561 
-344.772000 	 -5.224845 
-345.773700 	 -5.205762 
-346.751000 	 -5.186129 
-347.750100 	 -5.168112 
-348.731400 	 -5.147824 
-349.714900 	 -5.127716 
-350.714100 	 -5.109021 
-351.719100 	 -5.088659 
-352.729900 	 -5.068871 
-353.707600 	 -5.052062 
-354.698900 	 -5.034309 
-355.687300 	 -5.017563 
-356.678100 	 -5.000598 
-357.695600 	 -4.982836 
-358.698000 	 -4.964018 
-359.688400 	 -4.944572 
-360.689100 	 -4.927650 
-361.679300 	 -4.910622 
-362.647800 	 -4.894149 
-363.675600 	 -4.880065 
-364.683100 	 -4.864026 
-365.694600 	 -4.845979 
-366.730000 	 -4.830667 
-367.719400 	 -4.812131 
-368.708800 	 -4.793042 
-369.733000 	 -4.776326 
-370.729600 	 -4.758822 
-371.699500 	 -4.741982 
-372.688600 	 -4.727204 
-373.673500 	 -4.712996 
-374.688500 	 -4.698726 
-375.721800 	 -4.684577 
-376.741900 	 -4.670488 
-377.735300 	 -4.655870 
-378.715500 	 -4.639106 
-379.712300 	 -4.625650 
-380.721300 	 -4.611375 
-381.717000 	 -4.596490 
-382.729400 	 -4.584436 
-383.732800 	 -4.570940 
-384.697400 	 -4.557043 
-385.686500 	 -4.544081 
-386.676100 	 -4.530976 
-387.676800 	 -4.516681 
-388.702900 	 -4.503041 
-389.707200 	 -4.490296 
-390.706300 	 -4.478899 
-391.677800 	 -4.466947 
-392.674000 	 -4.457728 
-393.688700 	 -4.448400 
-394.674100 	 -4.437010 
-395.682100 	 -4.428455 
-396.682900 	 -4.417203 
-397.677000 	 -4.405443 
-398.691800 	 -4.396155 
-399.697700 	 -4.385081 
-400.671800 	 -4.375254 
-401.656500 	 -4.366242 
-402.637800 	 -4.356829 
-403.620700 	 -4.348898 
-404.655100 	 -4.341120 
-405.651200 	 -4.332765 
-406.651200 	 -4.324593 
-407.648300 	 -4.314984 
-408.615500 	 -4.305988 
-409.616300 	 -4.298782 
-410.614500 	 -4.291186 
-411.616900 	 -4.286593 
-412.615400 	 -4.282084 
-413.626000 	 -4.277788 
-414.646400 	 -4.274084 
-415.660300 	 -4.268638 
-416.674000 	 -4.262952 
-417.666700 	 -4.257345 
-418.666600 	 -4.251274 
-419.669000 	 -4.244843 
-420.659900 	 -4.239146 
-421.662700 	 -4.232756 
-422.649700 	 -4.227934 
-423.631600 	 -4.224337 
-424.639200 	 -4.221165 
-425.653300 	 -4.217514 
-426.661300 	 -4.213281 
-427.690400 	 -4.210429 
-428.694300 	 -4.206989 
-429.677200 	 -4.205329 
-430.679100 	 -4.205818 
-431.655900 	 -4.204616 
-432.657200 	 -4.204372 
-433.666000 	 -4.204932 
-434.652900 	 -4.203369 
-435.658400 	 -4.202037 
-436.652300 	 -4.201206 
-437.652700 	 -4.198730 
-438.674300 	 -4.198370 
-439.686400 	 -4.197536 
-440.685900 	 -4.196292 
-441.700000 	 -4.194923 
-442.705000 	 -4.193729 
-443.711800 	 -4.193063 
-444.730300 	 -4.192614 
-445.720200 	 -4.194440 
-446.709500 	 -4.192794 
-447.698000 	 -4.192924 
-448.679500 	 -4.195059 
-449.676800 	 -4.196367 
-450.685700 	 -4.198349 
-451.693300 	 -4.199840 
-452.714100 	 -4.201621 
-453.724100 	 -4.201042 
-454.729200 	 -4.203049 
-455.726400 	 -4.205718 
-456.718800 	 -4.206100 
-457.713600 	 -4.210378 
-458.693200 	 -4.212024 
-459.684400 	 -4.213070 
-460.682300 	 -4.214499 
-461.662700 	 -4.213269 
-462.658000 	 -4.217096 
-463.655000 	 -4.220226 
-464.653700 	 -4.223359 
-465.657800 	 -4.228320 
-466.655200 	 -4.231163 
-467.662900 	 -4.235314 
-468.663400 	 -4.239130 
-469.695000 	 -4.243068 
-470.709200 	 -4.246701 
-471.718800 	 -4.249637 
-472.725300 	 -4.253684 
-473.706400 	 -4.257241 
-474.697400 	 -4.259813 
-475.688000 	 -4.263983 
-476.706000 	 -4.267847 
-477.712400 	 -4.271275 
-478.727500 	 -4.274982 
-479.731000 	 -4.276830 
-480.715600 	 -4.278372 
-481.709800 	 -4.281263 
-482.710200 	 -4.285415 
-483.720400 	 -4.290109 
-484.701000 	 -4.294875 
-485.699200 	 -4.298710 
-486.687800 	 -4.302342 
-487.656300 	 -4.306388 
-488.660900 	 -4.310867 
-489.645500 	 -4.315580 
-490.638300 	 -4.319426 
-491.650400 	 -4.323570 
-492.650800 	 -4.327393 
-493.652600 	 -4.332146 
-494.656400 	 -4.337748 
-495.663700 	 -4.342418 
-496.661800 	 -4.347295 
-497.676000 	 -4.350543 
-498.684000 	 -4.353046 
-499.655500 	 -4.356119 
-500.654400 	 -4.360452 
-501.639200 	 -4.365864 
-502.622400 	 -4.372640 
-503.633300 	 -4.378631 
-504.625400 	 -4.383947 
-505.628600 	 -4.389259 
-506.628200 	 -4.393300 
-507.624700 	 -4.399358 
-508.626700 	 -4.403638 
-509.631900 	 -4.408036 
-510.617100 	 -4.413812 
-511.633200 	 -4.417975 
-512.609100 	 -4.422906 
-513.614600 	 -4.429413 
-514.646800 	 -4.435371 
-515.655500 	 -4.441157 
-516.697800 	 -4.447651 
-517.712500 	 -4.451885 
-518.695800 	 -4.456490 
-519.673200 	 -4.461494 
-520.668200 	 -4.468229 
-521.639600 	 -4.475159 
-522.628100 	 -4.481557 
-523.638300 	 -4.490294 
-524.629500 	 -4.496727 
-525.621500 	 -4.502955 
-526.657900 	 -4.510794 
-527.662100 	 -4.516413 
-528.677900 	 -4.521860 
-529.699500 	 -4.528131 
-530.701700 	 -4.532625 
-531.688700 	 -4.537216 
-532.674900 	 -4.543320 
-533.676000 	 -4.549701 
-534.671000 	 -4.557057 
-535.677800 	 -4.563311 
-536.670800 	 -4.569124 
-537.656000 	 -4.573873 
-538.614000 	 -4.577104 
-539.619800 	 -4.584888 
-540.642200 	 -4.592607 
-541.652800 	 -4.600316 
-542.686700 	 -4.609641 
-543.677900 	 -4.616496 
-544.686500 	 -4.622696 
-545.693500 	 -4.630398 
-546.700700 	 -4.637603 
-547.715300 	 -4.643755 
-548.697400 	 -4.649179 
-549.674100 	 -4.653859 
-550.650800 	 -4.658860 
-551.633100 	 -4.663484 
-552.619500 	 -4.670860 
-553.638400 	 -4.678524 
-554.657000 	 -4.684729 
-555.673300 	 -4.692628 
-556.684000 	 -4.698673 
-557.655600 	 -4.703507 
-558.645100 	 -4.711475 
-559.635700 	 -4.718154 
-560.613800 	 -4.726786 
-561.637900 	 -4.735652 
-562.624800 	 -4.743446 
-563.631000 	 -4.751480 
-564.653000 	 -4.758614 
-565.648300 	 -4.766589 
-566.668600 	 -4.774072 
-567.659400 	 -4.780898 
-568.651400 	 -4.787005 
-569.656600 	 -4.791945 
-570.635700 	 -4.795850 
-571.626900 	 -4.800676 
-572.629200 	 -4.805994 
-573.620200 	 -4.812357 
-574.631800 	 -4.820096 
-575.643300 	 -4.826861 
-576.636700 	 -4.834171 
-577.640000 	 -4.841856 
-578.645100 	 -4.849678 
-579.650800 	 -4.859303 
-580.664300 	 -4.868391 
-581.665900 	 -4.877301 
-582.654500 	 -4.885628 
-583.658600 	 -4.893280 
-584.647900 	 -4.900528 
-585.631500 	 -4.907584 
-586.631700 	 -4.913923 
-587.622400 	 -4.920485 
-588.622700 	 -4.926034 
-589.631000 	 -4.931534 
-590.638000 	 -4.940417 
-591.636500 	 -4.947655 
-592.628600 	 -4.954603 
-593.635300 	 -4.963770 
-594.629500 	 -4.969036 
-595.627300 	 -4.975922 
-596.651100 	 -4.985537 
-597.658900 	 -4.992989 
