WE1 Volts(mV)    WE1 Idir (uA) 
-100.369500 	 -1.832632 
-100.154400 	 -1.811925 
-99.684940 	 -1.786323 
-98.964980 	 -1.753041 
-98.010450 	 -1.717367 
-97.001660 	 -1.695177 
-96.004520 	 -1.674044 
-95.015270 	 -1.658749 
-93.988690 	 -1.641539 
-92.984420 	 -1.628705 
-91.983350 	 -1.615277 
-90.983900 	 -1.599791 
-89.996590 	 -1.585034 
-89.007580 	 -1.569873 
-87.989860 	 -1.555045 
-86.972500 	 -1.540797 
-85.965880 	 -1.525986 
-84.976400 	 -1.517483 
-83.994380 	 -1.510114 
-82.994470 	 -1.506204 
-81.985380 	 -1.502367 
-80.956560 	 -1.494064 
-79.962780 	 -1.486674 
-78.968840 	 -1.477777 
-77.964770 	 -1.465200 
-76.973260 	 -1.454040 
-75.965730 	 -1.441799 
-74.959820 	 -1.428492 
-73.969890 	 -1.420785 
-72.979710 	 -1.409524 
-71.979890 	 -1.397760 
-70.999770 	 -1.390412 
-70.008310 	 -1.384524 
-68.998760 	 -1.380692 
-67.985440 	 -1.377285 
-66.977080 	 -1.368712 
-65.978660 	 -1.359141 
-64.981290 	 -1.350535 
-63.985770 	 -1.343467 
-62.984310 	 -1.338367 
-61.962710 	 -1.330737 
-60.963260 	 -1.319463 
-59.957870 	 -1.305520 
-58.955680 	 -1.294185 
-57.967510 	 -1.287641 
-56.979730 	 -1.284420 
-55.972080 	 -1.283615 
-54.961850 	 -1.278759 
-53.960930 	 -1.271457 
-52.934320 	 -1.266419 
-51.954850 	 -1.260023 
-50.950050 	 -1.255303 
-49.951340 	 -1.249579 
-48.976150 	 -1.240586 
-47.954780 	 -1.229703 
-46.971580 	 -1.223267 
-45.960770 	 -1.216179 
-44.959820 	 -1.212259 
-43.953950 	 -1.209438 
-42.946740 	 -1.204280 
-41.938450 	 -1.198493 
-40.927610 	 -1.191618 
-39.967210 	 -1.185969 
-38.983350 	 -1.178492 
-38.007210 	 -1.170363 
-37.016720 	 -1.161798 
-35.996770 	 -1.153300 
-34.984030 	 -1.145136 
-33.980970 	 -1.141995 
-32.961200 	 -1.139175 
-31.964690 	 -1.137438 
-30.953120 	 -1.134442 
-29.933910 	 -1.127204 
-28.957190 	 -1.120345 
-27.955630 	 -1.111259 
-26.960410 	 -1.102155 
-25.973150 	 -1.095603 
-24.952770 	 -1.086825 
-23.957040 	 -1.079674 
-22.969190 	 -1.070356 
-21.972930 	 -1.061484 
-20.992720 	 -1.057756 
-19.993770 	 -1.056302 
-18.986040 	 -1.057872 
-17.990360 	 -1.056981 
-16.957890 	 -1.051304 
-15.948530 	 -1.042948 
-14.952160 	 -1.035106 
-13.932420 	 -1.027152 
-12.967300 	 -1.024267 
-11.976390 	 -1.019324 
-10.956930 	 -1.008628 
-9.970504 	 -0.999306 
-8.975755 	 -0.991751 
-7.951310 	 -0.986893 
-6.965617 	 -0.987999 
-5.947271 	 -0.989727 
-4.904796 	 -0.983911 
-3.936054 	 -0.982358 
-2.961164 	 -0.980602 
-1.995812 	 -0.977433 
-1.031408 	 -0.975343 
-0.054839 	 -0.970484 
0.935290 	 -0.960767 
1.939129 	 -0.948722 
2.932947 	 -0.944202 
3.944629 	 -0.938062 
4.959602 	 -0.935330 
5.925419 	 -0.937636 
6.905777 	 -0.934491 
7.896354 	 -0.930060 
8.887945 	 -0.925603 
9.913088 	 -0.918693 
10.912890 	 -0.910865 
11.911390 	 -0.900956 
12.907290 	 -0.893938 
13.885540 	 -0.886703 
14.896800 	 -0.879665 
15.893510 	 -0.878027 
16.900710 	 -0.876548 
17.911490 	 -0.873181 
18.905040 	 -0.871340 
19.924990 	 -0.863376 
20.926650 	 -0.853517 
21.941710 	 -0.843939 
22.941790 	 -0.831755 
23.921400 	 -0.823886 
24.906140 	 -0.816214 
25.884950 	 -0.810719 
26.883420 	 -0.799979 
27.867310 	 -0.791137 
28.858400 	 -0.783415 
29.836480 	 -0.775953 
30.816120 	 -0.772685 
31.823820 	 -0.764112 
32.836530 	 -0.750323 
33.859050 	 -0.734861 
34.874140 	 -0.721718 
35.889360 	 -0.711259 
36.893760 	 -0.703787 
37.870800 	 -0.696272 
38.872020 	 -0.681099 
39.855420 	 -0.662232 
40.857370 	 -0.646387 
41.880620 	 -0.629770 
42.866570 	 -0.620596 
43.886850 	 -0.611788 
44.881950 	 -0.595768 
45.886570 	 -0.579789 
46.905860 	 -0.562472 
47.899430 	 -0.546800 
48.891300 	 -0.533088 
49.886730 	 -0.514817 
50.887650 	 -0.495558 
51.870270 	 -0.474288 
52.891940 	 -0.446745 
53.888060 	 -0.426781 
54.873990 	 -0.399806 
55.880680 	 -0.375188 
56.836850 	 -0.359189 
57.828340 	 -0.333177 
58.814610 	 -0.309473 
59.821820 	 -0.284090 
60.836550 	 -0.255043 
61.841100 	 -0.223756 
62.834900 	 -0.196924 
63.824330 	 -0.161168 
64.830130 	 -0.131280 
65.838360 	 -0.102355 
66.867720 	 -0.069889 
67.869950 	 -0.039971 
68.897230 	 -0.002674 
69.888850 	 0.031795 
70.889970 	 0.067638 
71.910050 	 0.099322 
72.885820 	 0.131397 
73.886830 	 0.165724 
74.877030 	 0.198329 
75.859340 	 0.237047 
76.853790 	 0.283124 
77.864930 	 0.324865 
78.868680 	 0.368736 
79.878810 	 0.407545 
80.878890 	 0.442032 
81.870090 	 0.481128 
82.869000 	 0.516975 
83.851840 	 0.559937 
84.874090 	 0.607009 
85.867270 	 0.652713 
86.868800 	 0.707439 
87.868970 	 0.761221 
88.840810 	 0.809448 
89.843810 	 0.863312 
90.850020 	 0.910220 
91.865660 	 0.954678 
92.879670 	 1.002101 
93.871640 	 1.050222 
94.859570 	 1.107151 
95.841290 	 1.165622 
96.840840 	 1.235265 
97.893140 	 1.311004 
98.917920 	 1.375886 
99.940540 	 1.442106 
100.967000 	 1.505044 
101.936300 	 1.557764 
102.916300 	 1.621144 
103.914800 	 1.689529 
104.888400 	 1.752138 
105.878200 	 1.824614 
106.864400 	 1.903035 
107.850000 	 1.983605 
108.840300 	 2.068887 
109.838300 	 2.157674 
110.859500 	 2.243846 
111.864500 	 2.321767 
112.859300 	 2.402788 
113.849600 	 2.496765 
114.833100 	 2.584506 
115.828600 	 2.686079 
116.843200 	 2.799924 
117.866300 	 2.895876 
118.873500 	 2.999746 
119.869800 	 3.109865 
120.865600 	 3.211012 
121.852300 	 3.320497 
122.845500 	 3.433955 
123.866200 	 3.551719 
124.858900 	 3.667803 
125.841000 	 3.795270 
126.844200 	 3.935292 
127.818700 	 4.065968 
128.814900 	 4.204756 
129.844700 	 4.351597 
130.833800 	 4.477705 
131.843500 	 4.607103 
132.827800 	 4.747255 
133.803100 	 4.878420 
134.810900 	 5.034419 
135.803800 	 5.205375 
136.814600 	 5.385581 
137.826800 	 5.570290 
138.832600 	 5.740847 
139.858500 	 5.913896 
140.855900 	 6.075636 
141.840900 	 6.232361 
142.827100 	 6.410268 
143.811200 	 6.580022 
144.819000 	 6.757019 
145.824900 	 6.962416 
146.851600 	 7.163457 
147.853500 	 7.379080 
148.882900 	 7.606292 
149.900600 	 7.808457 
150.912300 	 8.006748 
151.888800 	 8.195276 
152.843100 	 8.371314 
153.830000 	 8.570686 
154.797900 	 8.770314 
155.819500 	 8.985315 
156.857500 	 9.216191 
157.862600 	 9.440304 
158.866200 	 9.671574 
159.858200 	 9.896935 
160.831000 	 10.111750 
161.836000 	 10.337360 
162.838400 	 10.544750 
163.832600 	 10.762930 
164.849800 	 10.990880 
165.846300 	 11.199850 
166.843100 	 11.445760 
167.864000 	 11.685690 
168.875800 	 11.912710 
169.894100 	 12.153730 
170.890500 	 12.370030 
171.874700 	 12.569360 
172.857100 	 12.777100 
173.836500 	 12.989540 
174.849700 	 13.216120 
175.841500 	 13.444470 
176.849400 	 13.680390 
177.858600 	 13.912410 
178.841200 	 14.106110 
179.865800 	 14.314950 
180.858800 	 14.518460 
181.835100 	 14.679680 
182.835800 	 14.871670 
183.824400 	 15.057930 
184.825200 	 15.229450 
185.828500 	 15.441280 
186.843900 	 15.660590 
187.849200 	 15.876830 
188.845800 	 16.073000 
189.855500 	 16.250240 
190.860600 	 16.400560 
191.840500 	 16.516540 
192.838000 	 16.648140 
193.844000 	 16.801990 
194.836900 	 16.929160 
195.853500 	 17.081990 
196.886000 	 17.254580 
197.899100 	 17.381300 
198.896800 	 17.531580 
199.908000 	 17.664280 
200.885300 	 17.745660 
201.866000 	 17.828890 
202.863700 	 17.894380 
203.849600 	 17.961180 
204.851600 	 18.032090 
205.840800 	 18.103460 
206.847200 	 18.191350 
207.845600 	 18.267090 
208.820500 	 18.335780 
209.842900 	 18.409260 
210.839800 	 18.433520 
211.835200 	 18.467710 
212.852400 	 18.509890 
213.843200 	 18.528270 
214.828800 	 18.559780 
215.827600 	 18.564900 
216.817900 	 18.552540 
217.813500 	 18.548320 
218.811500 	 18.543390 
219.805500 	 18.541150 
220.793200 	 18.532540 
221.801200 	 18.540010 
222.827500 	 18.538460 
223.826300 	 18.523740 
224.858800 	 18.509020 
225.878500 	 18.474400 
226.862000 	 18.410410 
227.872500 	 18.351210 
228.860600 	 18.289730 
229.820000 	 18.202220 
230.798200 	 18.147420 
231.800900 	 18.102230 
232.806700 	 18.047660 
233.819300 	 17.996920 
234.825100 	 17.936390 
235.817800 	 17.859630 
236.815700 	 17.774360 
237.807600 	 17.692330 
238.819600 	 17.626250 
239.812500 	 17.545180 
240.789600 	 17.467230 
241.797700 	 17.395570 
242.794500 	 17.297020 
243.808800 	 17.211840 
244.829000 	 17.136430 
245.824700 	 17.039820 
246.829800 	 16.948340 
247.817500 	 16.853150 
248.804400 	 16.752860 
249.812400 	 16.662900 
250.822100 	 16.584780 
251.857300 	 16.512970 
252.877400 	 16.428710 
253.879000 	 16.334520 
254.873000 	 16.236080 
255.823000 	 16.126610 
256.826100 	 16.022440 
257.806300 	 15.933330 
258.798900 	 15.835170 
259.798100 	 15.742710 
260.786400 	 15.659090 
261.813300 	 15.570390 
262.824600 	 15.493830 
263.846700 	 15.415450 
264.855100 	 15.333200 
265.844100 	 15.241630 
266.842500 	 15.141640 
267.840200 	 15.043860 
268.836500 	 14.949340 
269.824600 	 14.860760 
270.821800 	 14.783780 
271.834300 	 14.707490 
272.831800 	 14.631090 
273.857400 	 14.558890 
274.856100 	 14.478470 
275.856700 	 14.400440 
276.860000 	 14.323500 
277.841800 	 14.237880 
278.845700 	 14.156380 
279.831500 	 14.070880 
280.812000 	 13.985870 
281.821600 	 13.913480 
282.816000 	 13.847110 
283.820600 	 13.780400 
284.821800 	 13.715580 
285.820900 	 13.642530 
286.822800 	 13.568160 
287.816100 	 13.500220 
288.828300 	 13.438300 
289.834700 	 13.377920 
290.836200 	 13.312030 
291.848600 	 13.244170 
292.854900 	 13.173420 
293.862800 	 13.101830 
294.863700 	 13.040970 
295.859400 	 12.980120 
296.843100 	 12.918810 
297.835400 	 12.860550 
298.840900 	 12.802690 
299.856300 	 12.747410 
300.859600 	 12.697960 
301.868400 	 12.648420 
302.895000 	 12.596830 
303.897800 	 12.539650 
304.913600 	 12.478290 
305.908700 	 12.423450 
306.888100 	 12.364400 
307.874800 	 12.314300 
308.871200 	 12.267540 
309.833700 	 12.215760 
310.800000 	 12.170650 
311.801000 	 12.127910 
312.801200 	 12.081980 
313.830800 	 12.038180 
314.861600 	 11.992790 
315.870100 	 11.941900 
316.868500 	 11.892290 
317.847600 	 11.842820 
318.831800 	 11.799420 
319.822700 	 11.756380 
320.809800 	 11.718130 
321.844000 	 11.687850 
322.851200 	 11.650470 
323.852200 	 11.614740 
324.872900 	 11.578230 
325.863300 	 11.533500 
326.873200 	 11.495900 
327.879300 	 11.456740 
328.867100 	 11.415970 
329.857900 	 11.374970 
330.829700 	 11.333500 
331.812700 	 11.296780 
332.808300 	 11.262080 
333.793100 	 11.229460 
334.811500 	 11.199800 
335.806500 	 11.167500 
336.809800 	 11.130980 
337.809700 	 11.100480 
338.800400 	 11.065350 
339.804000 	 11.032840 
340.806500 	 11.002060 
341.813000 	 10.967650 
342.827500 	 10.934410 
343.821400 	 10.902590 
344.803200 	 10.870890 
345.808000 	 10.839780 
346.794400 	 10.808780 
347.809900 	 10.777810 
348.838800 	 10.749440 
349.842600 	 10.720920 
350.860200 	 10.699340 
351.871700 	 10.672750 
352.855700 	 10.642790 
353.867500 	 10.614430 
354.867700 	 10.581640 
355.848700 	 10.551840 
356.849500 	 10.523250 
357.835300 	 10.496590 
358.798400 	 10.469070 
359.797700 	 10.442550 
360.800500 	 10.418830 
361.783300 	 10.396270 
362.798300 	 10.369600 
363.807900 	 10.339650 
364.805300 	 10.316760 
365.819500 	 10.283690 
366.832800 	 10.259040 
367.825200 	 10.236530 
368.812100 	 10.209550 
369.811800 	 10.190070 
370.805000 	 10.167570 
371.808800 	 10.146180 
372.832600 	 10.127230 
373.840300 	 10.104320 
374.846100 	 10.084780 
375.862500 	 10.069180 
376.844200 	 10.048000 
377.848100 	 10.029430 
378.849700 	 10.007140 
379.853000 	 9.983166 
380.858300 	 9.961034 
381.836700 	 9.942932 
382.858300 	 9.927577 
383.839900 	 9.910777 
384.848000 	 9.894602 
385.867400 	 9.878493 
386.834400 	 9.855637 
387.816700 	 9.839168 
388.788800 	 9.826090 
389.774900 	 9.804109 
390.794200 	 9.787028 
391.818000 	 9.768047 
392.865900 	 9.746052 
393.895500 	 9.730493 
394.897200 	 9.716015 
395.908800 	 9.700161 
396.885700 	 9.682387 
397.869400 	 9.663849 
398.403600 	 9.572621 
398.422900 	 9.435488 
397.962800 	 9.269073 
397.020200 	 9.077147 
396.020200 	 8.930061 
395.029400 	 8.802649 
394.037800 	 8.684705 
393.006500 	 8.572792 
391.993700 	 8.470907 
390.985000 	 8.375959 
389.967500 	 8.289371 
388.981100 	 8.209778 
387.991900 	 8.133697 
387.001300 	 8.067636 
386.014800 	 8.003692 
385.014400 	 7.941664 
384.006700 	 7.885615 
383.000600 	 7.827326 
382.010100 	 7.769890 
380.998500 	 7.716585 
380.003900 	 7.662510 
379.003300 	 7.617431 
377.979500 	 7.574314 
376.979300 	 7.532631 
375.987000 	 7.491761 
374.977200 	 7.441961 
373.980000 	 7.398076 
372.996000 	 7.356070 
371.992800 	 7.312138 
371.003700 	 7.276714 
370.013400 	 7.239698 
369.005100 	 7.199925 
367.992200 	 7.168650 
366.974600 	 7.134567 
365.969800 	 7.103240 
364.957100 	 7.074479 
363.950900 	 7.043263 
362.981700 	 7.013818 
361.971700 	 6.979406 
360.979300 	 6.947641 
359.980200 	 6.922960 
358.954000 	 6.897439 
357.977000 	 6.871990 
356.992200 	 6.846293 
356.013100 	 6.811239 
355.050200 	 6.777033 
354.044200 	 6.748937 
353.024000 	 6.718182 
352.012100 	 6.692008 
350.973800 	 6.665947 
349.957000 	 6.638641 
348.945300 	 6.614178 
347.932800 	 6.588743 
346.930100 	 6.566244 
345.926500 	 6.543350 
344.953400 	 6.519208 
343.975500 	 6.497536 
342.980100 	 6.471869 
341.971300 	 6.447592 
340.968100 	 6.428752 
339.936300 	 6.407152 
338.940000 	 6.382349 
337.950600 	 6.356731 
336.943700 	 6.327047 
335.965500 	 6.297957 
334.963300 	 6.274131 
333.954600 	 6.250676 
332.950800 	 6.226514 
331.941100 	 6.203117 
330.960900 	 6.178265 
329.975300 	 6.153841 
328.982100 	 6.129103 
327.983200 	 6.105089 
326.963500 	 6.083265 
325.963500 	 6.060790 
324.983100 	 6.039158 
323.992800 	 6.015901 
322.990700 	 5.992062 
321.990800 	 5.968292 
320.973200 	 5.942872 
319.968900 	 5.916559 
318.970200 	 5.890361 
317.977300 	 5.861397 
316.970300 	 5.836180 
315.971800 	 5.810638 
314.984300 	 5.786297 
313.994400 	 5.762167 
313.007800 	 5.736467 
312.020700 	 5.711006 
311.008900 	 5.681117 
310.000400 	 5.652399 
308.994900 	 5.623478 
307.988300 	 5.594653 
307.010800 	 5.571054 
306.026000 	 5.549332 
305.037000 	 5.520101 
304.049100 	 5.494240 
303.035500 	 5.461084 
302.015900 	 5.421641 
301.006000 	 5.390197 
299.979900 	 5.351089 
298.960300 	 5.316279 
297.964600 	 5.281906 
296.945100 	 5.248839 
295.941500 	 5.217448 
294.958400 	 5.184026 
293.951700 	 5.153390 
292.971900 	 5.118272 
291.967600 	 5.076774 
290.937400 	 5.037760 
289.926800 	 4.998105 
288.889000 	 4.955353 
287.892700 	 4.919758 
286.899100 	 4.884159 
285.911900 	 4.848233 
284.905000 	 4.808091 
283.903100 	 4.766012 
282.900800 	 4.714474 
281.900300 	 4.664324 
280.948400 	 4.616520 
279.966900 	 4.569933 
278.992700 	 4.518923 
277.981800 	 4.467013 
276.974100 	 4.420375 
275.954800 	 4.360771 
274.957200 	 4.312443 
273.954800 	 4.257704 
272.929700 	 4.190818 
271.929400 	 4.134551 
270.930600 	 4.075599 
269.936300 	 4.019541 
268.972000 	 3.968010 
267.986400 	 3.910446 
267.001300 	 3.845402 
265.998700 	 3.769899 
264.966400 	 3.693683 
263.956900 	 3.616559 
262.943100 	 3.536544 
261.943300 	 3.463733 
260.980100 	 3.393897 
259.988300 	 3.310602 
258.965400 	 3.232393 
257.979000 	 3.149706 
256.969700 	 3.053336 
255.973500 	 2.966268 
254.987000 	 2.875525 
253.985500 	 2.776095 
252.985300 	 2.681398 
251.985500 	 2.585891 
250.993900 	 2.489190 
249.996200 	 2.391824 
248.981700 	 2.290799 
247.978600 	 2.185044 
246.986500 	 2.061291 
245.983700 	 1.935526 
244.990200 	 1.818776 
243.983600 	 1.686702 
242.968900 	 1.569503 
241.969800 	 1.460223 
240.972500 	 1.329361 
239.982300 	 1.204058 
238.983600 	 1.069034 
237.976600 	 0.921913 
236.949700 	 0.777431 
235.948000 	 0.624262 
234.943500 	 0.473059 
233.947400 	 0.314682 
232.954200 	 0.157737 
231.963600 	 0.020844 
230.984500 	 -0.125710 
230.007400 	 -0.275561 
229.035100 	 -0.419573 
228.022800 	 -0.603719 
227.011800 	 -0.796224 
225.988600 	 -0.987496 
224.982400 	 -1.193385 
223.975700 	 -1.381333 
222.976700 	 -1.560601 
221.987000 	 -1.739557 
220.984300 	 -1.912718 
219.989800 	 -2.096973 
219.004300 	 -2.284652 
218.019900 	 -2.481015 
217.021300 	 -2.695114 
216.026900 	 -2.909992 
214.998600 	 -3.138473 
213.987300 	 -3.367886 
212.993000 	 -3.568729 
211.987900 	 -3.777009 
210.996500 	 -3.974566 
210.007700 	 -4.172642 
209.013000 	 -4.407246 
208.021500 	 -4.637676 
207.024300 	 -4.882220 
206.005600 	 -5.133731 
205.005600 	 -5.363692 
204.018100 	 -5.596029 
203.030000 	 -5.818300 
202.037300 	 -6.040186 
201.033400 	 -6.274489 
200.046300 	 -6.502202 
199.046200 	 -6.745778 
198.037800 	 -6.986296 
197.050100 	 -7.224318 
196.020300 	 -7.495319 
195.007800 	 -7.745573 
194.010400 	 -7.980244 
192.983500 	 -8.224018 
191.993600 	 -8.429219 
190.990700 	 -8.634634 
189.989700 	 -8.875043 
189.001400 	 -9.110303 
188.000800 	 -9.355410 
187.017500 	 -9.614552 
185.989600 	 -9.861998 
184.977000 	 -10.093010 
183.963200 	 -10.310050 
182.948700 	 -10.530190 
181.964000 	 -10.722570 
180.983200 	 -10.901700 
179.986600 	 -11.106790 
178.994600 	 -11.286190 
178.016800 	 -11.469470 
177.008200 	 -11.694880 
175.998000 	 -11.900280 
174.992500 	 -12.100830 
173.979200 	 -12.312230 
172.963500 	 -12.484340 
171.977500 	 -12.641010 
170.967200 	 -12.795070 
169.966200 	 -12.946780 
168.985100 	 -13.101350 
167.981900 	 -13.247950 
166.988000 	 -13.415380 
165.991100 	 -13.564840 
164.982700 	 -13.687340 
163.973600 	 -13.837480 
162.972600 	 -13.956650 
161.974700 	 -14.049300 
160.985500 	 -14.157090 
159.993400 	 -14.232280 
158.994000 	 -14.300230 
157.994300 	 -14.389420 
156.982500 	 -14.475700 
155.987500 	 -14.560930 
155.007000 	 -14.635240 
154.008200 	 -14.697510 
153.014200 	 -14.742100 
152.003800 	 -14.761800 
151.004700 	 -14.795070 
150.019600 	 -14.829860 
149.019900 	 -14.847410 
148.023600 	 -14.888200 
147.004800 	 -14.918990 
145.986500 	 -14.926890 
144.980800 	 -14.951350 
143.979000 	 -14.952200 
142.974200 	 -14.935040 
141.972500 	 -14.903220 
140.965500 	 -14.855090 
139.982300 	 -14.806230 
138.975200 	 -14.782110 
137.979500 	 -14.767150 
136.976500 	 -14.754060 
135.953400 	 -14.721580 
134.954600 	 -14.663870 
133.933100 	 -14.600170 
132.945700 	 -14.523030 
131.933700 	 -14.461870 
130.943200 	 -14.380290 
129.950200 	 -14.303550 
128.928600 	 -14.232450 
127.946200 	 -14.149160 
126.959800 	 -14.072510 
125.962300 	 -13.990810 
124.965800 	 -13.913660 
123.959500 	 -13.833350 
122.952500 	 -13.747880 
121.963500 	 -13.655690 
120.975100 	 -13.557150 
119.984700 	 -13.451960 
118.965300 	 -13.364040 
117.951200 	 -13.270130 
116.958800 	 -13.165730 
115.961800 	 -13.080780 
114.968500 	 -12.977630 
113.994600 	 -12.875310 
112.996500 	 -12.790870 
112.004700 	 -12.684750 
111.006800 	 -12.576310 
110.006800 	 -12.476600 
109.000600 	 -12.368420 
107.986400 	 -12.264340 
107.009600 	 -12.171300 
105.989600 	 -12.081270 
104.996300 	 -11.987670 
104.007300 	 -11.890790 
103.010900 	 -11.787570 
102.057900 	 -11.674680 
101.075200 	 -11.565000 
100.100900 	 -11.471520 
99.111910 	 -11.380450 
98.075600 	 -11.294860 
97.049550 	 -11.214430 
96.030910 	 -11.123330 
95.002280 	 -11.032450 
93.999760 	 -10.941170 
93.006470 	 -10.847790 
91.998520 	 -10.753370 
90.997910 	 -10.656490 
89.997530 	 -10.562090 
88.995830 	 -10.470240 
88.021440 	 -10.374710 
87.026440 	 -10.294510 
86.019330 	 -10.214660 
85.009700 	 -10.127190 
83.980650 	 -10.044730 
82.961140 	 -9.953979 
81.973950 	 -9.865236 
80.980590 	 -9.792471 
79.981380 	 -9.718992 
78.999110 	 -9.648885 
77.981550 	 -9.576024 
76.993160 	 -9.498692 
75.981340 	 -9.422867 
74.992200 	 -9.346908 
73.991810 	 -9.275053 
72.971120 	 -9.202229 
72.004060 	 -9.127064 
70.993740 	 -9.051023 
70.011570 	 -8.975094 
69.043260 	 -8.899065 
68.035660 	 -8.828938 
67.040650 	 -8.762970 
66.019230 	 -8.693362 
64.996380 	 -8.626623 
63.980670 	 -8.561417 
62.963780 	 -8.497014 
61.974610 	 -8.439865 
60.984980 	 -8.384130 
59.993170 	 -8.328191 
59.015500 	 -8.271056 
58.012480 	 -8.212890 
57.013000 	 -8.157344 
56.009770 	 -8.099869 
54.972110 	 -8.046338 
53.980460 	 -7.990688 
52.969740 	 -7.931393 
51.965630 	 -7.874312 
51.018080 	 -7.813110 
50.033970 	 -7.753695 
49.062640 	 -7.700175 
48.081940 	 -7.646339 
47.056530 	 -7.598168 
46.048060 	 -7.550184 
45.028680 	 -7.503651 
44.008740 	 -7.458918 
43.011830 	 -7.414974 
41.989430 	 -7.372485 
40.981320 	 -7.325714 
39.974690 	 -7.278577 
38.982530 	 -7.230550 
38.014680 	 -7.182192 
37.038470 	 -7.135902 
36.050020 	 -7.093406 
35.031940 	 -7.051700 
34.002910 	 -7.011166 
32.980580 	 -6.971126 
31.996990 	 -6.926682 
31.017200 	 -6.883612 
30.036410 	 -6.840339 
29.055790 	 -6.799120 
28.042180 	 -6.760503 
27.039130 	 -6.722504 
26.039020 	 -6.685935 
25.014970 	 -6.647300 
24.033650 	 -6.610046 
23.021850 	 -6.573176 
22.014960 	 -6.536357 
21.049740 	 -6.497446 
20.048470 	 -6.459337 
19.066570 	 -6.417918 
18.081140 	 -6.378501 
17.059680 	 -6.344732 
16.037770 	 -6.310538 
15.021190 	 -6.277302 
14.002010 	 -6.243641 
12.998670 	 -6.206984 
12.022320 	 -6.168863 
11.047990 	 -6.133148 
10.065770 	 -6.098954 
9.085483 	 -6.067260 
8.076941 	 -6.036848 
7.070277 	 -6.008676 
6.054491 	 -5.979014 
5.049887 	 -5.948814 
4.058113 	 -5.920189 
3.050369 	 -5.889407 
2.065990 	 -5.857451 
1.066405 	 -5.824381 
0.071008 	 -5.790699 
-0.888610 	 -5.756676 
-1.836779 	 -5.725726 
-2.790980 	 -5.699597 
-3.755700 	 -5.674862 
-4.745463 	 -5.649996 
-5.760287 	 -5.626795 
-6.779613 	 -5.596972 
-7.777951 	 -5.566483 
-8.786476 	 -5.543578 
-9.790415 	 -5.520471 
-10.777940 	 -5.501420 
-11.788450 	 -5.484280 
-12.791790 	 -5.462544 
-13.786180 	 -5.442111 
-14.805650 	 -5.422289 
-15.839650 	 -5.401923 
-16.851190 	 -5.379443 
-17.851670 	 -5.356105 
-18.849290 	 -5.329249 
-19.820640 	 -5.302711 
-20.825910 	 -5.279250 
-21.849660 	 -5.251917 
-22.849460 	 -5.233704 
-23.855510 	 -5.216032 
-24.847500 	 -5.200653 
-25.844110 	 -5.184033 
-26.822010 	 -5.162736 
-27.828300 	 -5.148181 
-28.829810 	 -5.130937 
-29.821260 	 -5.117607 
-30.848400 	 -5.100468 
-31.849040 	 -5.078485 
-32.849490 	 -5.057606 
-33.861950 	 -5.040483 
-34.859840 	 -5.024339 
-35.882100 	 -5.010417 
-36.890320 	 -4.995701 
-37.874500 	 -4.977596 
-38.856520 	 -4.963269 
-39.808240 	 -4.945814 
-40.787110 	 -4.929064 
-41.779250 	 -4.915499 
-42.788340 	 -4.901914 
-43.802560 	 -4.884202 
-44.830630 	 -4.865415 
-45.838060 	 -4.846280 
-46.852170 	 -4.834203 
-47.857070 	 -4.824265 
-48.830580 	 -4.817214 
-49.828340 	 -4.809196 
-50.815440 	 -4.793993 
-51.803810 	 -4.780834 
-52.811770 	 -4.768611 
-53.817600 	 -4.758062 
-54.815640 	 -4.748756 
-55.830800 	 -4.738940 
-56.838190 	 -4.726293 
-57.842400 	 -4.713241 
-58.837880 	 -4.696852 
-59.830760 	 -4.685215 
-60.833560 	 -4.674788 
-61.851200 	 -4.661352 
-62.857920 	 -4.651691 
-63.857530 	 -4.635937 
-64.860570 	 -4.621729 
-65.849660 	 -4.614910 
-66.855310 	 -4.609618 
-67.866470 	 -4.604522 
-68.882180 	 -4.600671 
-69.879100 	 -4.593356 
-70.882900 	 -4.582821 
-71.878190 	 -4.574428 
-72.865660 	 -4.567696 
-73.873170 	 -4.557945 
-74.867920 	 -4.549459 
-75.866210 	 -4.542837 
-76.863330 	 -4.530576 
-77.813330 	 -4.519032 
-78.803360 	 -4.510215 
-79.787280 	 -4.501309 
-80.779300 	 -4.491465 
-81.808480 	 -4.484586 
-82.822250 	 -4.478804 
-83.833250 	 -4.472020 
-84.837510 	 -4.468993 
-85.847210 	 -4.467895 
-86.848250 	 -4.466242 
-87.866230 	 -4.461138 
-88.859090 	 -4.456420 
-89.849210 	 -4.449392 
-90.833720 	 -4.439708 
-91.846910 	 -4.437211 
-92.874250 	 -4.434450 
-93.865380 	 -4.430458 
-94.883980 	 -4.428530 
-95.871390 	 -4.421957 
-96.841980 	 -4.415570 
-97.866850 	 -4.408496 
