WE1 Volts(mV)    WE1 Idir (uA) 
199.444300 	 1.741261 
199.678200 	 1.801626 
200.183300 	 1.893377 
200.934000 	 2.010562 
201.937300 	 2.149240 
202.945800 	 2.237673 
203.933500 	 2.310310 
204.908000 	 2.369858 
205.893800 	 2.421650 
206.883500 	 2.474149 
207.875200 	 2.519449 
208.880800 	 2.562167 
209.869400 	 2.608163 
210.855000 	 2.645606 
211.848300 	 2.687932 
212.862900 	 2.733295 
213.884800 	 2.768301 
214.887000 	 2.804985 
215.900800 	 2.837705 
216.869100 	 2.859079 
217.859700 	 2.883052 
218.868800 	 2.907905 
219.871300 	 2.929669 
220.884500 	 2.957715 
221.868500 	 2.985456 
222.868900 	 3.011484 
223.851200 	 3.040369 
224.857200 	 3.065446 
225.886800 	 3.090424 
226.895600 	 3.112589 
227.896000 	 3.129650 
228.887100 	 3.146610 
229.854000 	 3.161188 
230.842500 	 3.175825 
231.842900 	 3.195282 
232.849600 	 3.215403 
233.843400 	 3.232859 
234.833500 	 3.252302 
235.812600 	 3.269604 
236.816200 	 3.280508 
237.827000 	 3.296415 
238.826500 	 3.316422 
239.850600 	 3.331458 
240.827100 	 3.352146 
241.846700 	 3.369687 
242.840600 	 3.377461 
243.843700 	 3.392329 
244.862300 	 3.406596 
245.829900 	 3.418617 
246.840200 	 3.435880 
247.826700 	 3.446931 
248.793300 	 3.457394 
249.805100 	 3.471414 
250.827400 	 3.487289 
251.840200 	 3.504638 
252.873000 	 3.520339 
253.884600 	 3.531397 
254.856100 	 3.538117 
255.858400 	 3.549551 
256.843100 	 3.558520 
257.832100 	 3.568608 
258.825800 	 3.585093 
259.789300 	 3.592156 
260.781600 	 3.604707 
261.776300 	 3.625711 
262.783000 	 3.635833 
263.829600 	 3.653110 
264.834500 	 3.669803 
265.853400 	 3.672220 
266.864200 	 3.683440 
267.834700 	 3.691321 
268.839300 	 3.696122 
269.821400 	 3.711899 
270.829200 	 3.723953 
271.848400 	 3.737484 
272.846700 	 3.756268 
273.854200 	 3.768694 
274.833600 	 3.781979 
275.804600 	 3.796415 
276.813800 	 3.807030 
277.809300 	 3.817977 
278.821200 	 3.830560 
279.828700 	 3.838848 
280.830600 	 3.843407 
281.825900 	 3.856628 
282.824700 	 3.868808 
283.823000 	 3.878764 
284.825500 	 3.899547 
285.838300 	 3.908333 
286.814200 	 3.914868 
287.818900 	 3.930425 
288.794900 	 3.938011 
289.792400 	 3.952116 
290.799100 	 3.967288 
291.795600 	 3.973478 
292.807500 	 3.984535 
293.810700 	 3.992596 
294.814800 	 4.000347 
295.816000 	 4.017636 
296.835400 	 4.025793 
297.820900 	 4.035986 
298.825100 	 4.050022 
299.843900 	 4.056054 
300.835100 	 4.071367 
301.851100 	 4.088432 
302.894000 	 4.099925 
303.882300 	 4.111597 
304.883900 	 4.120036 
305.890700 	 4.123974 
306.852100 	 4.128703 
307.858900 	 4.138546 
308.846500 	 4.147933 
309.835800 	 4.157366 
310.836200 	 4.171673 
311.834000 	 4.183754 
312.837200 	 4.194197 
313.838100 	 4.209454 
314.829500 	 4.219216 
315.822900 	 4.226002 
316.835800 	 4.236763 
317.827100 	 4.242146 
318.827800 	 4.250762 
319.815200 	 4.262650 
320.789400 	 4.268857 
321.801900 	 4.283233 
322.813900 	 4.295391 
323.829500 	 4.305083 
324.849300 	 4.321239 
325.853600 	 4.329112 
326.836500 	 4.336454 
327.839100 	 4.350074 
328.824200 	 4.354881 
329.801700 	 4.360632 
330.791000 	 4.372263 
331.759700 	 4.378668 
332.748100 	 4.389530 
333.727900 	 4.405078 
334.752000 	 4.414751 
335.779400 	 4.427549 
336.778000 	 4.439444 
337.792500 	 4.448475 
338.783900 	 4.457100 
339.780400 	 4.462605 
340.784000 	 4.470026 
341.790600 	 4.480315 
342.797800 	 4.494085 
343.779800 	 4.502272 
344.763700 	 4.513459 
345.761700 	 4.523055 
346.753200 	 4.530087 
347.768700 	 4.551104 
348.800800 	 4.564422 
349.823400 	 4.574762 
350.826700 	 4.593655 
351.837300 	 4.600022 
352.840200 	 4.611085 
353.856600 	 4.627132 
354.857500 	 4.629227 
355.849000 	 4.634136 
356.837000 	 4.649952 
357.814900 	 4.656835 
358.816000 	 4.671824 
359.815200 	 4.693414 
360.814400 	 4.698328 
361.812900 	 4.712397 
362.815600 	 4.726789 
363.816900 	 4.735620 
364.813600 	 4.754796 
365.800000 	 4.769988 
366.799800 	 4.780725 
367.818600 	 4.797821 
368.821800 	 4.810121 
369.827900 	 4.820239 
370.827600 	 4.838898 
371.799800 	 4.851947 
372.801400 	 4.862647 
373.781000 	 4.881429 
374.781900 	 4.896774 
375.775800 	 4.913916 
376.775100 	 4.939857 
377.802000 	 4.959418 
378.810500 	 4.975559 
379.851200 	 4.996225 
380.877200 	 5.008739 
381.877100 	 5.024673 
382.851700 	 5.045958 
383.806200 	 5.060470 
384.793700 	 5.082019 
385.782800 	 5.108315 
386.787600 	 5.128186 
387.819400 	 5.153767 
388.811300 	 5.181479 
389.804200 	 5.197780 
390.812100 	 5.224672 
391.813900 	 5.252047 
392.841100 	 5.269377 
393.862500 	 5.299753 
394.850900 	 5.325001 
395.837600 	 5.345633 
396.811600 	 5.381547 
397.797100 	 5.412517 
398.819800 	 5.444577 
399.822900 	 5.485278 
400.831500 	 5.515074 
401.863300 	 5.545947 
402.873400 	 5.579741 
403.897200 	 5.607437 
404.907200 	 5.642130 
405.894700 	 5.677645 
406.881800 	 5.713173 
407.869500 	 5.754301 
408.868200 	 5.794271 
409.867600 	 5.835221 
410.869500 	 5.874432 
411.869600 	 5.916067 
412.863200 	 5.955486 
413.873800 	 5.999331 
414.869000 	 6.048000 
415.863800 	 6.090317 
416.842700 	 6.139956 
417.835200 	 6.191408 
418.847700 	 6.237134 
419.838600 	 6.292408 
420.851200 	 6.345968 
421.823100 	 6.392865 
422.794400 	 6.449537 
423.790000 	 6.502228 
424.790100 	 6.556849 
425.791500 	 6.621865 
426.800100 	 6.683947 
427.795500 	 6.750284 
428.786400 	 6.818303 
429.793700 	 6.882603 
430.818100 	 6.953890 
431.816800 	 7.021512 
432.823100 	 7.085163 
433.820000 	 7.157312 
434.786200 	 7.224565 
435.772800 	 7.294995 
436.768000 	 7.377652 
437.776900 	 7.454431 
438.790100 	 7.532258 
439.811800 	 7.614887 
440.821400 	 7.688231 
441.822800 	 7.760690 
442.814400 	 7.835941 
443.820300 	 7.908397 
444.803100 	 7.980997 
445.789100 	 8.058216 
446.777500 	 8.134703 
447.757000 	 8.208977 
448.771500 	 8.290091 
449.777600 	 8.369607 
450.786200 	 8.440454 
451.809900 	 8.515469 
452.802200 	 8.584805 
453.804000 	 8.647158 
454.798600 	 8.722847 
455.784600 	 8.794002 
456.803300 	 8.867638 
457.818500 	 8.952837 
458.842200 	 9.027451 
459.856800 	 9.107725 
460.842200 	 9.189482 
461.824400 	 9.262053 
462.805900 	 9.346041 
463.781300 	 9.429347 
464.748800 	 9.508339 
465.752500 	 9.599880 
466.753400 	 9.684065 
467.757100 	 9.768685 
468.788000 	 9.867423 
469.771300 	 9.956794 
470.782900 	 10.050620 
471.789100 	 10.149380 
472.771800 	 10.235260 
473.770800 	 10.328360 
474.752400 	 10.428320 
475.757200 	 10.528920 
476.756000 	 10.636980 
477.761600 	 10.746760 
478.761400 	 10.855290 
479.757100 	 10.962180 
480.778000 	 11.073730 
481.784600 	 11.186400 
482.786400 	 11.292470 
483.775300 	 11.404050 
484.764500 	 11.516980 
485.747700 	 11.628500 
486.744000 	 11.753540 
487.756500 	 11.878030 
488.754000 	 12.008300 
489.740800 	 12.139960 
490.740100 	 12.263800 
491.721800 	 12.395180 
492.714500 	 12.521390 
493.735900 	 12.652110 
494.739600 	 12.801030 
495.745300 	 12.937550 
496.751500 	 13.077890 
497.750900 	 13.229230 
498.751100 	 13.365290 
499.744600 	 13.515030 
500.745900 	 13.672790 
501.744400 	 13.820910 
502.733300 	 13.976500 
503.750400 	 14.136180 
504.760200 	 14.294110 
505.779500 	 14.456150 
506.821000 	 14.622310 
507.827300 	 14.786430 
508.839300 	 14.945470 
509.831600 	 15.107760 
510.809900 	 15.272860 
511.806200 	 15.437820 
512.806600 	 15.615480 
513.811800 	 15.797690 
514.830100 	 15.977890 
515.829800 	 16.160470 
516.820200 	 16.339310 
517.790000 	 16.513210 
518.775300 	 16.692100 
519.757700 	 16.876340 
520.747900 	 17.064400 
521.760600 	 17.257100 
522.752200 	 17.457050 
523.764900 	 17.657430 
524.779100 	 17.856540 
525.777000 	 18.062520 
526.796100 	 18.267160 
527.783100 	 18.465420 
528.767200 	 18.667150 
529.782600 	 18.874470 
530.758800 	 19.075780 
531.765100 	 19.292000 
532.781600 	 19.523120 
533.780500 	 19.744330 
534.789200 	 19.976000 
535.792800 	 20.204220 
536.786400 	 20.417620 
537.785600 	 20.642070 
538.764300 	 20.862290 
539.758700 	 21.084160 
540.751100 	 21.317250 
541.744300 	 21.542840 
542.760600 	 21.781910 
543.742100 	 22.030000 
544.740000 	 22.270870 
545.738900 	 22.530250 
546.739900 	 22.783440 
547.746200 	 23.017880 
548.730000 	 23.262180 
549.719500 	 23.503470 
550.722700 	 23.745790 
551.749600 	 24.007100 
552.774000 	 24.275020 
553.798500 	 24.536130 
554.790000 	 24.795620 
555.798300 	 25.064010 
556.808500 	 25.318490 
557.788600 	 25.573630 
558.791500 	 25.847380 
559.778100 	 26.103660 
560.753000 	 26.364260 
561.761800 	 26.644880 
562.759000 	 26.906670 
563.763200 	 27.184260 
564.780900 	 27.471260 
565.788200 	 27.733770 
566.800200 	 28.010420 
567.780300 	 28.271870 
568.756200 	 28.523830 
569.743200 	 28.801050 
570.738200 	 29.066060 
571.745200 	 29.346970 
572.767800 	 29.643710 
573.775000 	 29.918050 
574.772500 	 30.202870 
575.798300 	 30.484580 
576.781000 	 30.749490 
577.775300 	 31.028030 
578.773400 	 31.294620 
579.744000 	 31.556420 
580.758100 	 31.826730 
581.754600 	 32.095380 
582.756500 	 32.381320 
583.775100 	 32.670770 
584.793300 	 32.957930 
585.804500 	 33.239120 
586.806600 	 33.501960 
587.773900 	 33.757520 
588.736700 	 34.007390 
589.726900 	 34.260220 
590.726000 	 34.519350 
591.751000 	 34.778920 
592.757900 	 35.046700 
593.763400 	 35.315810 
594.774500 	 35.574420 
595.793800 	 35.839470 
596.801500 	 36.096130 
597.789800 	 36.333510 
598.763500 	 36.578030 
599.726700 	 36.813430 
600.723900 	 37.042690 
601.733500 	 37.291550 
602.752300 	 37.534110 
603.767600 	 37.773310 
604.781900 	 38.014980 
605.778900 	 38.238350 
606.789200 	 38.456490 
607.791300 	 38.667770 
608.798500 	 38.872280 
609.819300 	 39.088600 
610.804000 	 39.289860 
611.804300 	 39.494990 
612.800300 	 39.702420 
613.787700 	 39.885660 
614.805400 	 40.080250 
615.817000 	 40.265460 
616.804700 	 40.431430 
617.803800 	 40.597660 
618.780100 	 40.754450 
619.752900 	 40.906360 
620.739200 	 41.059670 
621.747600 	 41.221260 
622.762800 	 41.387370 
623.768500 	 41.540070 
624.785700 	 41.692490 
625.784300 	 41.828410 
626.772900 	 41.937840 
627.768900 	 42.054790 
628.766600 	 42.157550 
629.746300 	 42.250890 
630.742100 	 42.358180 
631.744500 	 42.453140 
632.735200 	 42.556710 
633.757000 	 42.666260 
634.768800 	 42.749210 
635.770100 	 42.831420 
636.767000 	 42.892760 
637.746900 	 42.934190 
638.731400 	 42.988580 
639.726700 	 43.026330 
640.722000 	 43.063710 
641.714900 	 43.118380 
642.715400 	 43.153120 
643.703900 	 43.185170 
644.696700 	 43.225070 
645.689000 	 43.232060 
646.665700 	 43.239650 
647.671800 	 43.260300 
648.695800 	 43.253770 
649.696000 	 43.249400 
650.706000 	 43.253230 
651.689500 	 43.229560 
652.671200 	 43.210100 
653.684900 	 43.196610 
654.692000 	 43.164630 
655.705100 	 43.131560 
656.720600 	 43.105440 
657.728500 	 43.057950 
658.721700 	 43.005920 
659.741500 	 42.960300 
660.739400 	 42.898520 
661.736300 	 42.838990 
662.770500 	 42.785790 
663.779400 	 42.716050 
664.777300 	 42.641230 
665.786400 	 42.563810 
666.776400 	 42.472520 
667.754000 	 42.381160 
668.745500 	 42.280780 
669.723100 	 42.177010 
670.723000 	 42.083640 
671.729500 	 41.978970 
672.726100 	 41.888530 
673.756500 	 41.807530 
674.761600 	 41.697300 
675.776900 	 41.596130 
676.792500 	 41.489300 
677.750500 	 41.349480 
678.736000 	 41.225880 
679.720800 	 41.109400 
680.695600 	 40.974150 
681.705300 	 40.859470 
682.711400 	 40.752860 
683.711200 	 40.627470 
684.722200 	 40.513060 
685.739400 	 40.398590 
686.764800 	 40.268000 
687.780500 	 40.140420 
688.772800 	 40.007550 
689.789200 	 39.864090 
690.753300 	 39.724340 
691.742200 	 39.584160 
692.760600 	 39.447230 
693.733700 	 39.325100 
694.737500 	 39.193720 
695.735200 	 39.062210 
696.720100 	 38.939410 
697.708900 	 38.789470 
698.701000 	 38.654170 
699.705100 	 38.533790 
700.707900 	 38.387470 
701.718400 	 38.267000 
702.736900 	 38.144100 
703.724500 	 38.000340 
704.740600 	 37.878700 
705.765900 	 37.747060 
706.750400 	 37.604430 
707.757600 	 37.472520 
708.772600 	 37.332350 
709.752100 	 37.195500 
710.766700 	 37.070810 
711.784600 	 36.946510 
712.788000 	 36.828910 
713.820600 	 36.710540 
714.833000 	 36.582140 
715.827000 	 36.452490 
716.807700 	 36.325750 
717.780500 	 36.188280 
718.773800 	 36.060850 
719.762700 	 35.945970 
720.748900 	 35.812380 
721.754400 	 35.697360 
722.724700 	 35.591860 
723.736500 	 35.462710 
724.759200 	 35.354460 
725.757600 	 35.249560 
726.779700 	 35.117500 
727.763200 	 35.005490 
728.749200 	 34.892780 
729.738500 	 34.761600 
730.742400 	 34.658920 
731.757700 	 34.555040 
732.772800 	 34.442580 
733.786300 	 34.349510 
734.773700 	 34.245480 
735.756000 	 34.140380 
736.755400 	 34.045600 
737.769700 	 33.953690 
738.760000 	 33.858460 
739.759800 	 33.773900 
740.736500 	 33.704380 
741.716400 	 33.627750 
742.719300 	 33.625520 
743.728200 	 33.633510 
744.733800 	 33.532450 
745.727700 	 33.482790 
746.721100 	 33.342960 
747.703200 	 33.187790 
748.697100 	 33.153750 
749.698400 	 33.044880 
750.733600 	 32.982820 
751.745600 	 32.893500 
752.762000 	 32.799200 
753.767600 	 32.766340 
754.745200 	 32.641910 
755.757300 	 32.577140 
756.762200 	 32.504350 
757.758400 	 32.350770 
758.754600 	 32.295180 
759.737200 	 32.201390 
760.720100 	 32.082800 
761.737300 	 32.014620 
762.762900 	 31.923490 
763.790100 	 31.854620 
764.817100 	 31.762760 
765.809300 	 31.681870 
766.799000 	 31.623540 
767.785600 	 31.504400 
768.766000 	 31.455960 
769.766700 	 31.404050 
770.758700 	 31.292950 
771.734100 	 31.266520 
772.751600 	 31.206360 
773.745400 	 31.120550 
774.752700 	 31.089910 
775.772800 	 31.012570 
776.763100 	 30.939770 
777.758000 	 30.883470 
778.763900 	 30.804400 
779.765300 	 30.748170 
780.743600 	 30.670300 
781.734000 	 30.599430 
782.731000 	 30.545450 
783.714800 	 30.461280 
784.720300 	 30.401490 
785.744800 	 30.341390 
786.733600 	 30.258710 
787.739700 	 30.198720 
788.745100 	 30.131680 
789.718500 	 30.062100 
790.718300 	 29.995570 
791.730700 	 29.928670 
792.724400 	 29.875800 
793.735800 	 29.799050 
794.742700 	 29.744010 
795.730700 	 29.694610 
796.724400 	 29.613060 
797.714600 	 29.567450 
798.235800 	 29.442550 
798.256200 	 29.245110 
797.803200 	 29.032990 
796.860700 	 28.776100 
795.873800 	 28.541290 
794.904500 	 28.338350 
793.909800 	 28.147220 
792.881800 	 27.958310 
791.884900 	 27.784670 
790.873800 	 27.617000 
789.862300 	 27.455400 
788.854700 	 27.286300 
787.855000 	 27.133650 
786.868700 	 26.989590 
785.869000 	 26.827160 
784.879800 	 26.683480 
783.880200 	 26.543650 
782.871800 	 26.394800 
781.883000 	 26.263710 
780.912200 	 26.145540 
779.914900 	 26.013130 
778.933300 	 25.884020 
777.936500 	 25.767070 
776.919100 	 25.632400 
775.919400 	 25.499910 
774.894600 	 25.386550 
773.884500 	 25.261360 
772.903600 	 25.133090 
771.890700 	 25.025120 
770.893400 	 24.908670 
769.912100 	 24.792550 
768.895300 	 24.692400 
767.911400 	 24.580960 
766.933200 	 24.468800 
765.924900 	 24.359520 
764.929000 	 24.248630 
763.921400 	 24.142110 
762.897500 	 24.032050 
761.883700 	 23.929520 
760.868700 	 23.835550 
759.863800 	 23.731810 
758.874500 	 23.631730 
757.893700 	 23.537270 
756.916400 	 23.427530 
755.918900 	 23.323770 
754.906400 	 23.232030 
753.894000 	 23.129190 
752.869100 	 23.029320 
751.871600 	 22.942790 
750.886700 	 22.847100 
749.889300 	 22.748050 
748.913800 	 22.665800 
747.919100 	 22.574970 
746.927600 	 22.479070 
745.934800 	 22.393640 
744.925500 	 22.298370 
743.902800 	 22.201030 
742.881800 	 22.115430 
741.870500 	 22.029880 
740.890900 	 21.944310 
739.909100 	 21.856830 
738.909500 	 21.766150 
737.920200 	 21.677530 
736.893600 	 21.584500 
735.888700 	 21.495010 
734.905500 	 21.409720 
733.894800 	 21.317380 
732.894800 	 21.229010 
731.873400 	 21.149490 
730.865900 	 21.065630 
729.862500 	 20.980500 
728.879400 	 20.906110 
727.911400 	 20.824170 
726.911800 	 20.733340 
725.916200 	 20.651340 
724.902500 	 20.565380 
723.886400 	 20.469970 
722.880600 	 20.391940 
721.879700 	 20.314640 
720.879400 	 20.224680 
719.902100 	 20.147930 
718.919600 	 20.066940 
717.919700 	 19.978600 
716.937700 	 19.897610 
715.931300 	 19.817090 
714.928500 	 19.730530 
713.947100 	 19.642040 
712.929500 	 19.561860 
711.920300 	 19.477380 
710.912800 	 19.394510 
709.899100 	 19.319790 
708.911700 	 19.239700 
707.913600 	 19.155910 
706.918100 	 19.073280 
705.912500 	 18.988700 
704.888700 	 18.902140 
703.902800 	 18.819210 
702.902000 	 18.740810 
701.909300 	 18.657370 
700.919800 	 18.572080 
699.898900 	 18.491530 
698.892000 	 18.404420 
697.875500 	 18.313910 
696.857500 	 18.234290 
695.857900 	 18.147240 
694.858000 	 18.059120 
693.858700 	 17.979570 
692.868300 	 17.895200 
691.851500 	 17.809880 
690.853000 	 17.732650 
689.891800 	 17.657390 
688.900100 	 17.571830 
687.915800 	 17.489330 
686.917300 	 17.402790 
685.889000 	 17.310420 
684.876900 	 17.221920 
683.871200 	 17.133510 
682.867900 	 17.045360 
681.845600 	 16.956100 
680.868700 	 16.869060 
679.878300 	 16.788360 
678.873200 	 16.701780 
677.894300 	 16.613810 
676.902700 	 16.534520 
675.908100 	 16.437840 
674.894500 	 16.338170 
673.879200 	 16.252550 
672.848800 	 16.152900 
671.840600 	 16.064290 
670.843700 	 15.987200 
669.846600 	 15.897630 
668.877000 	 15.811890 
667.879900 	 15.725760 
666.903400 	 15.633580 
665.931000 	 15.540080 
664.921100 	 15.445460 
663.919400 	 15.351670 
662.905300 	 15.255180 
661.869300 	 15.158440 
660.873200 	 15.068570 
659.883700 	 14.975830 
658.895600 	 14.883390 
657.929000 	 14.793600 
656.927400 	 14.692830 
655.907100 	 14.589730 
654.881000 	 14.484950 
653.842000 	 14.385880 
652.833100 	 14.288420 
651.843900 	 14.192590 
650.858400 	 14.104940 
649.878700 	 14.008610 
648.866800 	 13.907720 
647.841700 	 13.812280 
646.823500 	 13.708080 
645.841800 	 13.605200 
644.845700 	 13.510860 
643.864700 	 13.409320 
642.891000 	 13.309390 
641.888300 	 13.216140 
640.891100 	 13.114590 
639.902700 	 13.017260 
638.909100 	 12.921360 
637.903000 	 12.817320 
636.902000 	 12.714960 
635.900400 	 12.611090 
634.891400 	 12.506890 
633.907300 	 12.406040 
632.922500 	 12.306330 
631.946900 	 12.205440 
630.943700 	 12.101070 
629.927600 	 11.991440 
628.929800 	 11.884250 
627.904200 	 11.775570 
626.917800 	 11.668770 
625.925700 	 11.567840 
624.923400 	 11.464110 
623.927200 	 11.361060 
622.928300 	 11.256910 
621.929900 	 11.149880 
620.935400 	 11.042330 
619.932900 	 10.932730 
618.929700 	 10.825750 
617.925300 	 10.718350 
616.909600 	 10.609610 
615.937300 	 10.510150 
614.948300 	 10.407950 
613.969100 	 10.306180 
613.015000 	 10.208480 
612.018000 	 10.099300 
611.001800 	 9.989303 
609.973900 	 9.874783 
608.930700 	 9.757786 
607.895400 	 9.647631 
606.902000 	 9.535494 
605.905300 	 9.431002 
604.919600 	 9.330374 
603.940700 	 9.223632 
602.935300 	 9.122403 
601.944100 	 9.015468 
600.929700 	 8.904645 
599.917600 	 8.798962 
598.908000 	 8.688490 
597.885300 	 8.582196 
596.884800 	 8.478130 
595.890000 	 8.374217 
594.893200 	 8.274581 
593.915000 	 8.171380 
592.909000 	 8.068149 
591.909500 	 7.962943 
590.916500 	 7.855939 
589.899300 	 7.751855 
588.909100 	 7.646544 
587.898200 	 7.545956 
586.914500 	 7.446639 
585.938500 	 7.346505 
584.940500 	 7.251508 
583.949800 	 7.153979 
582.926900 	 7.054515 
581.911600 	 6.959065 
580.906600 	 6.858055 
579.900300 	 6.754781 
578.897900 	 6.656824 
577.899000 	 6.557399 
576.895600 	 6.462019 
575.904400 	 6.370681 
574.915500 	 6.278802 
573.920200 	 6.182899 
572.920400 	 6.087389 
571.912700 	 5.992066 
570.900900 	 5.894821 
569.900800 	 5.802107 
568.895400 	 5.711205 
567.901600 	 5.621296 
566.912400 	 5.533553 
565.916600 	 5.449266 
564.960300 	 5.366071 
563.958000 	 5.282722 
562.979500 	 5.199871 
561.981700 	 5.117520 
560.960600 	 5.029564 
559.942100 	 4.942451 
558.911700 	 4.859155 
557.889500 	 4.773264 
556.882300 	 4.691292 
555.918000 	 4.612965 
554.930200 	 4.531874 
553.941900 	 4.451259 
552.928200 	 4.372305 
551.941200 	 4.294545 
550.924300 	 4.214303 
549.921000 	 4.137754 
548.940100 	 4.064356 
547.906700 	 3.986899 
546.912800 	 3.914819 
545.901200 	 3.845700 
544.870700 	 3.774463 
543.879000 	 3.708162 
542.888900 	 3.642650 
541.920900 	 3.574130 
540.958000 	 3.507476 
539.956400 	 3.440658 
538.975400 	 3.375063 
537.955200 	 3.310166 
536.938600 	 3.245599 
535.948700 	 3.182262 
534.931200 	 3.118673 
533.924300 	 3.056020 
532.933100 	 2.996110 
531.927300 	 2.936256 
530.929200 	 2.874893 
529.941400 	 2.817238 
528.938100 	 2.757717 
527.910000 	 2.699539 
526.891400 	 2.646073 
525.895600 	 2.593210 
524.894000 	 2.542426 
523.942100 	 2.492001 
522.964100 	 2.441790 
521.984800 	 2.389410 
521.001200 	 2.338130 
519.965200 	 2.289337 
518.939000 	 2.239600 
517.925500 	 2.190706 
516.928200 	 2.142909 
515.933800 	 2.095025 
514.967900 	 2.049401 
513.962600 	 2.006441 
512.951000 	 1.964237 
511.985300 	 1.921995 
510.979000 	 1.880244 
509.981800 	 1.836311 
508.969800 	 1.793450 
507.942500 	 1.750298 
506.925800 	 1.709495 
505.908900 	 1.672572 
504.932600 	 1.635120 
503.946400 	 1.599660 
502.948000 	 1.560830 
501.952800 	 1.523753 
500.933600 	 1.487419 
499.899700 	 1.449786 
498.894700 	 1.414759 
497.906000 	 1.380259 
496.897700 	 1.344410 
495.909400 	 1.311175 
494.917100 	 1.280126 
493.913700 	 1.248501 
492.915200 	 1.220205 
491.903600 	 1.189066 
490.911300 	 1.161779 
489.896700 	 1.131819 
488.886100 	 1.098352 
487.898500 	 1.072627 
486.889500 	 1.041487 
485.906000 	 1.014446 
484.946800 	 0.993986 
483.941700 	 0.965255 
482.935500 	 0.941966 
481.934700 	 0.917046 
480.914700 	 0.887637 
479.921100 	 0.862453 
478.943700 	 0.834554 
477.938700 	 0.807147 
476.915000 	 0.782645 
475.916500 	 0.759368 
474.918200 	 0.738950 
473.931000 	 0.718677 
472.963600 	 0.698280 
471.987000 	 0.678749 
470.964100 	 0.657083 
469.952100 	 0.634411 
468.963300 	 0.614261 
467.938300 	 0.593800 
466.947600 	 0.574937 
465.971100 	 0.559283 
464.966600 	 0.538445 
463.975600 	 0.518328 
462.983000 	 0.496533 
461.962900 	 0.474504 
460.969000 	 0.455879 
459.970200 	 0.436327 
458.973000 	 0.417702 
457.995000 	 0.398818 
456.980200 	 0.380157 
455.991000 	 0.363581 
454.989900 	 0.348364 
453.964100 	 0.334159 
452.972500 	 0.320178 
451.951500 	 0.302966 
450.950500 	 0.285924 
449.954900 	 0.267807 
448.937100 	 0.251569 
447.944500 	 0.239032 
446.950600 	 0.225223 
445.974500 	 0.210886 
444.976300 	 0.193715 
443.977700 	 0.174404 
442.963600 	 0.156291 
441.941700 	 0.139647 
440.952100 	 0.124046 
439.958400 	 0.108239 
438.956200 	 0.092304 
437.927900 	 0.076539 
436.917500 	 0.062662 
435.902700 	 0.049770 
434.915100 	 0.037934 
433.954100 	 0.027024 
432.962700 	 0.013391 
431.963100 	 0.000427 
430.974200 	 -0.014666 
429.963600 	 -0.030118 
428.965500 	 -0.043358 
427.976400 	 -0.057426 
426.955600 	 -0.071750 
425.947000 	 -0.087571 
424.938900 	 -0.104809 
423.938600 	 -0.120361 
422.944000 	 -0.135819 
421.970000 	 -0.149920 
420.997100 	 -0.162462 
420.008500 	 -0.179399 
419.020500 	 -0.194050 
418.006800 	 -0.209180 
416.997600 	 -0.226040 
415.988500 	 -0.238886 
415.003600 	 -0.251676 
414.039800 	 -0.265272 
413.062500 	 -0.278709 
412.071400 	 -0.293317 
411.077000 	 -0.310020 
410.065400 	 -0.325240 
409.053800 	 -0.340349 
408.068300 	 -0.356140 
407.053600 	 -0.374299 
406.044700 	 -0.393545 
405.040800 	 -0.410696 
404.010900 	 -0.430383 
403.014700 	 -0.445981 
402.018500 	 -0.459489 
401.015300 	 -0.478218 
400.019500 	 -0.493869 
399.000100 	 -0.511018 
397.969400 	 -0.529771 
396.937300 	 -0.544555 
395.954200 	 -0.557303 
394.962800 	 -0.570220 
393.975900 	 -0.584234 
392.990000 	 -0.598829 
391.971100 	 -0.614181 
390.974200 	 -0.630495 
389.957900 	 -0.644810 
388.975400 	 -0.655836 
387.965300 	 -0.670075 
386.943400 	 -0.681713 
385.957900 	 -0.692255 
384.952900 	 -0.702889 
383.972500 	 -0.709426 
382.997000 	 -0.714638 
382.026200 	 -0.721275 
381.054900 	 -0.730352 
380.036300 	 -0.740069 
379.013900 	 -0.750488 
377.972100 	 -0.759319 
376.932900 	 -0.766717 
375.950900 	 -0.770171 
374.981500 	 -0.775079 
373.986300 	 -0.781115 
372.998300 	 -0.786137 
372.001100 	 -0.793689 
371.001400 	 -0.800036 
370.037600 	 -0.804563 
369.011500 	 -0.811339 
367.990200 	 -0.818018 
366.941600 	 -0.823255 
365.920400 	 -0.827537 
364.936000 	 -0.828694 
363.949800 	 -0.829713 
362.982200 	 -0.830836 
361.986700 	 -0.833735 
360.986000 	 -0.838475 
359.983100 	 -0.842369 
358.979700 	 -0.846405 
357.973800 	 -0.848212 
356.979200 	 -0.846136 
355.991900 	 -0.847163 
354.986500 	 -0.849614 
353.989200 	 -0.855166 
352.993600 	 -0.862815 
351.996400 	 -0.867847 
351.015500 	 -0.872284 
350.012300 	 -0.876609 
349.005300 	 -0.880042 
347.966900 	 -0.882408 
346.936500 	 -0.884060 
345.922000 	 -0.883142 
344.911300 	 -0.885347 
343.925900 	 -0.886661 
342.934400 	 -0.890246 
341.934800 	 -0.891591 
340.927300 	 -0.893629 
339.913400 	 -0.896312 
338.906200 	 -0.896254 
337.913000 	 -0.896952 
336.922000 	 -0.900257 
335.940200 	 -0.901991 
334.952400 	 -0.906396 
333.934300 	 -0.914424 
332.927600 	 -0.915607 
331.935500 	 -0.919598 
330.938600 	 -0.917901 
329.951500 	 -0.918856 
328.962600 	 -0.918536 
327.956700 	 -0.918779 
326.965900 	 -0.923023 
325.971500 	 -0.924154 
324.981000 	 -0.927648 
323.970500 	 -0.932132 
322.950000 	 -0.935698 
321.952800 	 -0.937085 
320.956600 	 -0.938231 
319.981400 	 -0.938535 
318.993800 	 -0.939386 
317.994800 	 -0.944112 
316.995500 	 -0.950203 
315.996200 	 -0.956955 
314.984200 	 -0.962600 
313.972700 	 -0.965915 
312.955700 	 -0.970806 
311.958200 	 -0.971792 
310.986900 	 -0.974147 
310.015100 	 -0.975778 
309.058300 	 -0.975386 
308.054300 	 -0.977713 
307.040700 	 -0.979582 
306.061600 	 -0.982231 
305.015300 	 -0.988228 
304.011000 	 -0.994135 
303.015600 	 -0.998029 
302.003500 	 -1.001760 
301.024200 	 -1.001738 
300.029000 	 -1.004498 
299.032200 	 -1.010392 
298.003800 	 -1.018718 
296.983900 	 -1.027484 
295.961000 	 -1.034821 
294.938200 	 -1.041709 
293.932900 	 -1.045687 
292.933500 	 -1.050275 
291.930200 	 -1.056107 
290.955100 	 -1.058846 
289.959300 	 -1.062292 
288.944200 	 -1.067721 
287.951000 	 -1.069407 
286.937000 	 -1.075026 
285.933200 	 -1.083117 
284.956800 	 -1.088488 
283.965100 	 -1.095651 
282.968800 	 -1.099996 
281.983600 	 -1.102284 
280.981300 	 -1.107259 
280.012700 	 -1.113688 
279.016900 	 -1.124867 
278.032900 	 -1.137331 
277.041900 	 -1.146526 
275.997500 	 -1.159183 
274.977200 	 -1.168559 
273.968000 	 -1.175815 
272.953000 	 -1.187979 
271.960100 	 -1.193883 
270.965200 	 -1.198287 
269.964000 	 -1.207156 
268.983800 	 -1.213612 
268.010900 	 -1.221857 
267.014900 	 -1.234170 
265.995400 	 -1.246522 
264.973400 	 -1.256505 
263.957900 	 -1.267743 
262.953800 	 -1.279164 
261.964000 	 -1.288497 
261.000200 	 -1.300941 
260.006000 	 -1.317101 
259.002800 	 -1.332520 
258.029400 	 -1.348020 
257.011900 	 -1.364172 
256.025800 	 -1.377766 
255.062000 	 -1.392755 
254.040500 	 -1.410029 
253.032200 	 -1.426962 
252.005400 	 -1.445495 
250.980700 	 -1.460611 
249.995300 	 -1.475049 
249.007200 	 -1.491603 
248.019500 	 -1.506869 
247.030200 	 -1.526584 
246.010800 	 -1.548504 
245.006000 	 -1.565198 
243.998200 	 -1.586281 
242.981600 	 -1.606856 
241.995900 	 -1.626752 
240.992100 	 -1.653154 
240.002200 	 -1.677597 
239.007800 	 -1.702377 
237.998400 	 -1.727767 
236.996000 	 -1.751339 
235.994900 	 -1.777725 
234.995700 	 -1.804707 
233.986000 	 -1.833390 
232.972500 	 -1.863334 
231.959100 	 -1.890085 
230.950600 	 -1.916142 
229.979300 	 -1.940679 
229.029400 	 -1.965437 
228.047500 	 -1.996823 
227.067100 	 -2.030704 
226.067100 	 -2.066531 
225.046900 	 -2.105230 
224.048900 	 -2.140664 
223.055100 	 -2.177450 
222.035400 	 -2.216366 
221.020100 	 -2.253212 
220.016500 	 -2.292076 
219.004500 	 -2.329463 
218.026700 	 -2.368870 
217.053300 	 -2.409257 
216.061200 	 -2.452000 
215.042800 	 -2.501233 
214.006500 	 -2.548849 
212.987000 	 -2.595564 
211.965100 	 -2.645156 
211.003600 	 -2.685597 
210.032000 	 -2.727754 
209.046300 	 -2.778754 
208.057500 	 -2.826940 
207.059300 	 -2.883228 
206.052500 	 -2.943874 
205.030100 	 -2.999709 
204.043000 	 -3.055719 
203.041400 	 -3.114759 
202.054800 	 -3.172946 
