WE1 Volts(mV)    WE1 Idir (uA) 
-800.075900 	 -11.072860 
-799.831800 	 -11.053020 
-799.341300 	 -11.022590 
-798.575700 	 -10.979030 
-797.544100 	 -10.924600 
-796.538300 	 -10.883250 
-795.534200 	 -10.843770 
-794.551300 	 -10.807090 
-793.575000 	 -10.772860 
-792.569700 	 -10.737000 
-791.575000 	 -10.699400 
-790.591400 	 -10.662750 
-789.604900 	 -10.624260 
-788.627900 	 -10.586400 
-787.635300 	 -10.548870 
-786.629100 	 -10.509760 
-785.621600 	 -10.471710 
-784.590000 	 -10.433730 
-783.568800 	 -10.398640 
-782.570700 	 -10.366150 
-781.580100 	 -10.333890 
-780.602200 	 -10.301900 
-779.616900 	 -10.269400 
-778.608300 	 -10.236060 
-777.601100 	 -10.202060 
-776.597700 	 -10.167810 
-775.601000 	 -10.133070 
-774.602200 	 -10.098620 
-773.569900 	 -10.065290 
-772.563800 	 -10.032290 
-771.535600 	 -9.998255 
-770.535200 	 -9.967989 
-769.579600 	 -9.939661 
-768.577000 	 -9.912260 
-767.597500 	 -9.885379 
-766.603300 	 -9.856519 
-765.581100 	 -9.825655 
-764.597000 	 -9.794914 
-763.603200 	 -9.764162 
-762.611700 	 -9.733689 
-761.631200 	 -9.702739 
-760.628600 	 -9.669461 
-759.638700 	 -9.637135 
-758.632800 	 -9.606069 
-757.617700 	 -9.577940 
-756.618000 	 -9.553268 
-755.609500 	 -9.528215 
-754.612900 	 -9.501534 
-753.624300 	 -9.473841 
-752.631500 	 -9.445909 
-751.643600 	 -9.418846 
-750.662700 	 -9.391937 
-749.655800 	 -9.363625 
-748.652800 	 -9.334693 
-747.628400 	 -9.304917 
-746.596400 	 -9.276797 
-745.597500 	 -9.250576 
-744.600300 	 -9.224995 
-743.589600 	 -9.201223 
-742.610900 	 -9.177465 
-741.619800 	 -9.153398 
-740.617700 	 -9.129023 
-739.643600 	 -9.104067 
-738.654100 	 -9.077897 
-737.664900 	 -9.050308 
-736.669300 	 -9.022343 
-735.657400 	 -8.995937 
-734.645800 	 -8.970123 
-733.625600 	 -8.947386 
-732.625700 	 -8.925576 
-731.653300 	 -8.901923 
-730.657800 	 -8.878668 
-729.675700 	 -8.855722 
-728.691000 	 -8.831305 
-727.664700 	 -8.806660 
-726.647300 	 -8.781553 
-725.625500 	 -8.753886 
-724.604800 	 -8.728193 
-723.605200 	 -8.703585 
-722.608200 	 -8.678361 
-721.623400 	 -8.653296 
-720.605600 	 -8.629175 
-719.611000 	 -8.607932 
-718.611400 	 -8.587930 
-717.600100 	 -8.567697 
-716.611600 	 -8.546589 
-715.615500 	 -8.522944 
-714.608800 	 -8.498448 
-713.607200 	 -8.476234 
-712.638100 	 -8.453973 
-711.646500 	 -8.431727 
-710.661400 	 -8.408878 
-709.673800 	 -8.384645 
-708.650800 	 -8.360856 
-707.621400 	 -8.338591 
-706.598300 	 -8.320266 
-705.598300 	 -8.302601 
-704.600800 	 -8.284584 
-703.630600 	 -8.265280 
-702.675200 	 -8.245096 
-701.673900 	 -8.223399 
-700.693700 	 -8.201958 
-699.689800 	 -8.180286 
-698.669600 	 -8.156324 
-697.659800 	 -8.135027 
-696.622700 	 -8.114004 
-695.628200 	 -8.093745 
-694.623500 	 -8.074533 
-693.639900 	 -8.055557 
-692.670700 	 -8.037469 
-691.665900 	 -8.019081 
-690.694100 	 -7.999735 
-689.699500 	 -7.979307 
-688.700000 	 -7.956182 
-687.719200 	 -7.933907 
-686.702300 	 -7.912334 
-685.687200 	 -7.890226 
-684.692900 	 -7.873726 
-683.695400 	 -7.852496 
-682.688900 	 -7.831740 
-681.712900 	 -7.812967 
-680.706300 	 -7.792799 
-679.696100 	 -7.774858 
-678.711100 	 -7.758099 
-677.719200 	 -7.738405 
-676.715900 	 -7.715901 
-675.704100 	 -7.695503 
-674.680000 	 -7.672716 
-673.675200 	 -7.654116 
-672.687100 	 -7.633380 
-671.701400 	 -7.615883 
-670.721300 	 -7.596921 
-669.703300 	 -7.578934 
-668.694900 	 -7.564364 
-667.683600 	 -7.546188 
-666.675900 	 -7.526572 
-665.686800 	 -7.504621 
-664.695100 	 -7.478193 
-663.699700 	 -7.449989 
-662.708300 	 -7.429753 
-661.704000 	 -7.408400 
-660.692300 	 -7.388931 
-659.697600 	 -7.371031 
-658.707500 	 -7.350489 
-657.722500 	 -7.332816 
-656.713000 	 -7.317384 
-655.718100 	 -7.303826 
-654.706800 	 -7.288238 
-653.702200 	 -7.270560 
-652.715900 	 -7.254313 
-651.725500 	 -7.237124 
-650.720000 	 -7.220669 
-649.718400 	 -7.204379 
-648.722800 	 -7.185563 
-647.714200 	 -7.166364 
-646.714100 	 -7.148224 
-645.710300 	 -7.130798 
-644.703500 	 -7.114953 
-643.687500 	 -7.099515 
-642.686600 	 -7.086186 
-641.683600 	 -7.072437 
-640.678000 	 -7.057222 
-639.697900 	 -7.043049 
-638.693400 	 -7.025772 
-637.682500 	 -7.006021 
-636.686200 	 -6.988889 
-635.677300 	 -6.971733 
-634.675300 	 -6.954826 
-633.676900 	 -6.941799 
-632.681800 	 -6.927236 
-631.691800 	 -6.912226 
-630.689500 	 -6.898667 
-629.710700 	 -6.884399 
-628.699400 	 -6.869960 
-627.686200 	 -6.853591 
-626.682400 	 -6.836221 
-625.671300 	 -6.818613 
-624.676000 	 -6.800210 
-623.655700 	 -6.784983 
-622.663100 	 -6.769013 
-621.658800 	 -6.751039 
-620.648700 	 -6.736435 
-619.666200 	 -6.721414 
-618.649500 	 -6.708823 
-617.647900 	 -6.697351 
-616.665500 	 -6.683909 
-615.656400 	 -6.669188 
-614.670500 	 -6.653704 
-613.675800 	 -6.638317 
-612.678800 	 -6.623575 
-611.689100 	 -6.609082 
-610.703500 	 -6.592857 
-609.719800 	 -6.577047 
-608.706700 	 -6.560397 
-607.719400 	 -6.546568 
-606.724100 	 -6.534965 
-605.702000 	 -6.524099 
-604.704700 	 -6.513456 
-603.685400 	 -6.500983 
-602.681500 	 -6.487848 
-601.692700 	 -6.474605 
-600.731100 	 -6.461068 
-599.755700 	 -6.446573 
-598.760800 	 -6.431658 
-597.756600 	 -6.416212 
-596.731400 	 -6.403114 
-595.718300 	 -6.389795 
-594.710000 	 -6.377681 
-593.713300 	 -6.365519 
-592.719300 	 -6.352688 
-591.742900 	 -6.340296 
-590.763200 	 -6.327161 
-589.789800 	 -6.314413 
-588.818000 	 -6.299644 
-587.789300 	 -6.284404 
-586.775500 	 -6.268844 
-585.751800 	 -6.254035 
-584.700400 	 -6.239714 
-583.716300 	 -6.227307 
-582.736300 	 -6.215675 
-581.752000 	 -6.203267 
-580.793900 	 -6.193296 
-579.782300 	 -6.181905 
-578.749400 	 -6.171298 
-577.748800 	 -6.158529 
-576.736100 	 -6.143460 
-575.763300 	 -6.128796 
-574.784300 	 -6.113907 
-573.766200 	 -6.100717 
-572.766300 	 -6.087084 
-571.752500 	 -6.072598 
-570.732500 	 -6.058546 
-569.741600 	 -6.047525 
-568.733500 	 -6.037984 
-567.710000 	 -6.029672 
-566.724500 	 -6.020302 
-565.701400 	 -6.009426 
-564.690200 	 -5.997376 
-563.729900 	 -5.984939 
-562.747700 	 -5.973848 
-561.777800 	 -5.961178 
-560.803300 	 -5.947749 
-559.784500 	 -5.934139 
-558.788800 	 -5.919501 
-557.792400 	 -5.907401 
-556.801000 	 -5.898535 
-555.804600 	 -5.889768 
-554.775600 	 -5.880627 
-553.787200 	 -5.870250 
-552.775000 	 -5.859685 
-551.787000 	 -5.848731 
-550.802900 	 -5.838170 
-549.815000 	 -5.827524 
-548.805600 	 -5.814077 
-547.786100 	 -5.801160 
-546.782600 	 -5.788130 
-545.755200 	 -5.776112 
-544.744900 	 -5.765966 
-543.759600 	 -5.756863 
-542.761600 	 -5.749693 
-541.748200 	 -5.740573 
-540.757400 	 -5.731598 
-539.748500 	 -5.721688 
-538.755500 	 -5.709903 
-537.770000 	 -5.698771 
-536.778000 	 -5.686011 
-535.784700 	 -5.673884 
-534.773300 	 -5.662213 
-533.777600 	 -5.651722 
-532.789000 	 -5.641506 
-531.808300 	 -5.631905 
-530.817000 	 -5.624204 
-529.818500 	 -5.614842 
-528.805200 	 -5.604707 
-527.787400 	 -5.593718 
-526.809400 	 -5.579251 
-525.815600 	 -5.568093 
-524.823800 	 -5.556466 
-523.824000 	 -5.546367 
-522.808300 	 -5.537127 
-521.810600 	 -5.525625 
-520.830700 	 -5.516752 
-519.832000 	 -5.507972 
-518.836400 	 -5.499599 
-517.822300 	 -5.490249 
-516.801200 	 -5.478436 
-515.764300 	 -5.470003 
-514.756300 	 -5.460968 
-513.769400 	 -5.452824 
-512.755000 	 -5.445424 
-511.795400 	 -5.432707 
-510.792600 	 -5.422774 
-509.765900 	 -5.412003 
-508.766000 	 -5.403430 
-507.762100 	 -5.395156 
-506.757300 	 -5.385695 
-505.788700 	 -5.379125 
-504.812800 	 -5.371340 
-503.806500 	 -5.363981 
-502.802800 	 -5.354441 
-501.765400 	 -5.343872 
-500.768300 	 -5.333217 
-499.769500 	 -5.322595 
-498.776600 	 -5.314429 
-497.804700 	 -5.304066 
-496.773200 	 -5.292718 
-495.780200 	 -5.281998 
-494.799500 	 -5.272974 
-493.826600 	 -5.263984 
-492.841300 	 -5.258183 
-491.832800 	 -5.251827 
-490.798200 	 -5.241868 
-489.781100 	 -5.233512 
-488.782000 	 -5.223058 
-487.783900 	 -5.215009 
-486.832500 	 -5.206841 
-485.831500 	 -5.197804 
-484.846600 	 -5.188046 
-483.859700 	 -5.175117 
-482.836300 	 -5.165403 
-481.837800 	 -5.157625 
-480.832100 	 -5.150953 
-479.831900 	 -5.145562 
-478.835500 	 -5.137617 
-477.818200 	 -5.130354 
-476.816000 	 -5.122838 
-475.801800 	 -5.114411 
-474.814400 	 -5.106380 
-473.842400 	 -5.096094 
-472.846300 	 -5.085078 
-471.833600 	 -5.074999 
-470.816800 	 -5.066422 
-469.778000 	 -5.059000 
-468.759000 	 -5.053458 
-467.763500 	 -5.048108 
-466.755600 	 -5.041273 
-465.773200 	 -5.032712 
-464.770700 	 -5.022751 
-463.764600 	 -5.012928 
-462.758200 	 -5.001386 
-461.749100 	 -4.992231 
-460.759200 	 -4.983382 
-459.798100 	 -4.973817 
-458.797900 	 -4.966498 
-457.814200 	 -4.958126 
-456.843900 	 -4.950043 
-455.830000 	 -4.943233 
-454.859700 	 -4.936930 
-453.859200 	 -4.929396 
-452.837100 	 -4.920844 
-451.811400 	 -4.910486 
-450.776800 	 -4.900059 
-449.765900 	 -4.890772 
-448.774100 	 -4.882679 
-447.810200 	 -4.876059 
-446.832700 	 -4.866385 
-445.842300 	 -4.856581 
-444.846400 	 -4.848433 
-443.810700 	 -4.840182 
-442.790600 	 -4.833872 
-441.806300 	 -4.829512 
-440.801100 	 -4.822198 
-439.828300 	 -4.814440 
-438.849900 	 -4.806273 
-437.812000 	 -4.796977 
-436.805200 	 -4.789625 
-435.793500 	 -4.782034 
-434.789900 	 -4.775367 
-433.812000 	 -4.768346 
-432.805200 	 -4.759388 
-431.820300 	 -4.751279 
-430.815200 	 -4.744714 
-429.804300 	 -4.737780 
-428.823700 	 -4.733062 
-427.808700 	 -4.725522 
-426.809100 	 -4.716535 
-425.808400 	 -4.707322 
-424.787800 	 -4.697027 
-423.785300 	 -4.688923 
-422.773100 	 -4.680948 
-421.768800 	 -4.671296 
-420.772500 	 -4.661675 
-419.759300 	 -4.652880 
-418.778200 	 -4.645694 
-417.800800 	 -4.641201 
-416.780500 	 -4.635907 
-415.811500 	 -4.630404 
-414.805700 	 -4.622005 
-413.770400 	 -4.612896 
-412.773300 	 -4.606746 
-411.786500 	 -4.599391 
-410.792800 	 -4.592353 
-409.814100 	 -4.584584 
-408.839300 	 -4.573489 
-407.811400 	 -4.565639 
-406.770300 	 -4.560075 
-405.761800 	 -4.554945 
-404.754300 	 -4.550987 
-403.753300 	 -4.544802 
-402.789500 	 -4.538242 
-401.820400 	 -4.531144 
-400.826700 	 -4.523586 
-399.844500 	 -4.515845 
-398.870000 	 -4.506368 
-397.841100 	 -4.498521 
-396.849700 	 -4.491979 
-395.836300 	 -4.484852 
-394.807300 	 -4.478177 
-393.821900 	 -4.472209 
-392.812800 	 -4.464739 
-391.822000 	 -4.458753 
-390.850100 	 -4.452950 
-389.844000 	 -4.445367 
-388.849800 	 -4.438391 
-387.837300 	 -4.428734 
-386.830600 	 -4.419643 
-385.829000 	 -4.410706 
-384.817700 	 -4.402314 
-383.826200 	 -4.395695 
-382.816500 	 -4.387491 
-381.826100 	 -4.380253 
-380.849500 	 -4.374803 
-379.863600 	 -4.369686 
-378.866100 	 -4.365710 
-377.890900 	 -4.361725 
-376.879100 	 -4.351348 
-375.874400 	 -4.342132 
-374.889600 	 -4.334136 
-373.847100 	 -4.324250 
-372.851200 	 -4.317270 
-371.857700 	 -4.311188 
-370.857400 	 -4.302778 
-369.890900 	 -4.296169 
-368.908900 	 -4.293522 
-367.923300 	 -4.287745 
-366.923600 	 -4.282500 
-365.892700 	 -4.275923 
-364.884100 	 -4.268712 
-363.865100 	 -4.260963 
-362.841700 	 -4.253062 
-361.860200 	 -4.248017 
-360.852500 	 -4.240883 
-359.870400 	 -4.234481 
-358.905700 	 -4.228156 
-357.906900 	 -4.218052 
-356.915400 	 -4.209560 
-355.908100 	 -4.202641 
-354.888600 	 -4.197001 
-353.893500 	 -4.193068 
-352.887300 	 -4.185237 
-351.877700 	 -4.177354 
-350.882100 	 -4.168669 
-349.863600 	 -4.159592 
-348.858900 	 -4.154353 
-347.865100 	 -4.147388 
-346.856000 	 -4.139826 
-345.868700 	 -4.131931 
-344.879100 	 -4.124253 
-343.872300 	 -4.117820 
-342.872100 	 -4.113426 
-341.863100 	 -4.109181 
-340.845600 	 -4.103584 
-339.848000 	 -4.097214 
-338.845600 	 -4.089095 
-337.866900 	 -4.083335 
-336.880200 	 -4.076666 
-335.886400 	 -4.070931 
-334.888800 	 -4.064337 
-333.895800 	 -4.054481 
-332.894500 	 -4.048228 
-331.885700 	 -4.042080 
-330.871100 	 -4.038105 
-329.864100 	 -4.034917 
-328.880700 	 -4.029813 
-327.903600 	 -4.023505 
-326.949000 	 -4.016468 
-325.951500 	 -4.009265 
-324.949000 	 -4.001365 
-323.931800 	 -3.992872 
-322.907300 	 -3.984112 
-321.898800 	 -3.976314 
-320.889100 	 -3.969130 
-319.890300 	 -3.963447 
-318.887300 	 -3.958428 
-317.883700 	 -3.953164 
-316.877300 	 -3.947787 
-315.878900 	 -3.942070 
-314.886200 	 -3.935221 
-313.887900 	 -3.927743 
-312.885600 	 -3.918720 
-311.866400 	 -3.909495 
-310.828600 	 -3.900906 
-309.798500 	 -3.893972 
-308.787300 	 -3.887548 
-307.803900 	 -3.879217 
-306.828200 	 -3.872033 
-305.877700 	 -3.865730 
-304.877700 	 -3.860111 
-303.888200 	 -3.857225 
-302.895900 	 -3.853110 
-301.874700 	 -3.846125 
-300.897300 	 -3.839550 
-299.900500 	 -3.831664 
-298.893700 	 -3.824200 
-297.912200 	 -3.817365 
-296.908500 	 -3.808520 
-295.901300 	 -3.798909 
-294.912200 	 -3.789868 
-293.903800 	 -3.782384 
-292.908400 	 -3.777931 
-291.902000 	 -3.774298 
-290.881700 	 -3.769622 
-289.867200 	 -3.763271 
-288.868600 	 -3.755724 
-287.869300 	 -3.748793 
-286.908800 	 -3.740589 
-285.917600 	 -3.732256 
-284.914600 	 -3.724545 
-283.918000 	 -3.714245 
-282.896700 	 -3.706488 
-281.903600 	 -3.700745 
-280.904500 	 -3.693697 
-279.897800 	 -3.688808 
-278.892000 	 -3.683986 
-277.905700 	 -3.677329 
-276.909400 	 -3.671302 
-275.938200 	 -3.664592 
-274.966500 	 -3.655679 
-273.951800 	 -3.645895 
-272.940300 	 -3.634636 
-271.933300 	 -3.625239 
-270.916800 	 -3.616375 
-269.895500 	 -3.609359 
-268.913300 	 -3.604053 
-267.904200 	 -3.597756 
-266.891600 	 -3.591408 
-265.938600 	 -3.584887 
-264.930900 	 -3.577348 
-263.922100 	 -3.568014 
-262.934100 	 -3.559086 
-261.896300 	 -3.548798 
-260.866500 	 -3.538297 
-259.845700 	 -3.528698 
-258.828500 	 -3.519752 
-257.860200 	 -3.508533 
-256.881600 	 -3.498157 
-255.921900 	 -3.489691 
-254.943100 	 -3.481377 
-253.914200 	 -3.474847 
-252.909200 	 -3.467784 
-251.897400 	 -3.458991 
-250.888000 	 -3.447762 
-249.907700 	 -3.438270 
-248.921300 	 -3.427763 
-247.920000 	 -3.417899 
-246.932700 	 -3.406703 
-245.921900 	 -3.393770 
-244.925700 	 -3.381997 
-243.913700 	 -3.369911 
-242.920600 	 -3.362200 
-241.926800 	 -3.354691 
-240.924500 	 -3.346668 
-239.935400 	 -3.337333 
-238.935300 	 -3.326459 
-237.935300 	 -3.314692 
-236.939300 	 -3.303612 
-235.938800 	 -3.291302 
-234.919500 	 -3.276813 
-233.909400 	 -3.262568 
-232.904600 	 -3.249136 
-231.905800 	 -3.238055 
-230.906500 	 -3.228110 
-229.899600 	 -3.218307 
-228.917200 	 -3.207223 
-227.921100 	 -3.193913 
-226.945600 	 -3.179664 
-225.968700 	 -3.164579 
-224.960100 	 -3.146917 
-223.967100 	 -3.130677 
-222.955600 	 -3.112873 
-221.936800 	 -3.095118 
-220.931400 	 -3.078019 
-219.913500 	 -3.057574 
-218.890800 	 -3.041907 
-217.913200 	 -3.026403 
-216.933600 	 -3.009839 
-215.942100 	 -2.994502 
-214.965600 	 -2.975131 
-213.954000 	 -2.952300 
-212.921800 	 -2.930410 
-211.911800 	 -2.908223 
-210.901100 	 -2.881795 
-209.883900 	 -2.861981 
-208.886700 	 -2.840477 
-207.890700 	 -2.820254 
-206.900900 	 -2.802794 
-205.909300 	 -2.780364 
-204.927600 	 -2.759513 
-203.928200 	 -2.734393 
-202.931800 	 -2.707742 
-201.916900 	 -2.681329 
-200.921100 	 -2.652355 
-199.926100 	 -2.624505 
-198.929600 	 -2.598350 
-197.953600 	 -2.569484 
-196.925600 	 -2.538914 
-195.925400 	 -2.504877 
-194.915800 	 -2.469769 
-193.929500 	 -2.434680 
-192.936000 	 -2.401549 
-191.956600 	 -2.370156 
-190.972400 	 -2.336658 
-189.959100 	 -2.298804 
-188.974200 	 -2.262635 
-187.984100 	 -2.225115 
-186.957400 	 -2.183903 
-185.970800 	 -2.144886 
-184.962900 	 -2.098612 
-183.906500 	 -2.047152 
-182.910200 	 -1.997369 
-181.889000 	 -1.946058 
-180.905300 	 -1.896689 
-179.937600 	 -1.849780 
-178.960700 	 -1.803724 
-177.985400 	 -1.755798 
-176.975800 	 -1.702580 
-175.985200 	 -1.649185 
-174.982600 	 -1.590999 
-173.974900 	 -1.524808 
-172.971800 	 -1.461050 
-171.961400 	 -1.391998 
-170.954800 	 -1.320622 
-169.960100 	 -1.254217 
-168.966600 	 -1.186785 
-167.979600 	 -1.120683 
-166.989100 	 -1.055153 
-165.991500 	 -0.984754 
-165.008400 	 -0.910151 
-163.999200 	 -0.828036 
-163.008200 	 -0.742258 
-162.018700 	 -0.656344 
-161.004900 	 -0.566235 
-160.009700 	 -0.480161 
-158.990000 	 -0.393377 
-157.954900 	 -0.298580 
-156.953200 	 -0.209386 
-155.933000 	 -0.118118 
-154.920900 	 -0.024071 
-153.940100 	 0.067252 
-152.942100 	 0.166777 
-151.977700 	 0.271066 
-151.005000 	 0.375211 
-150.009900 	 0.481167 
-149.031800 	 0.581878 
-148.032700 	 0.680998 
-147.031400 	 0.785326 
-146.023300 	 0.892742 
-144.973900 	 1.012050 
-143.949900 	 1.131057 
-142.940500 	 1.248754 
-141.963200 	 1.366525 
-141.001200 	 1.475941 
-140.018900 	 1.589358 
-139.020900 	 1.703732 
-138.000500 	 1.812857 
-137.000500 	 1.926266 
-136.001800 	 2.042190 
-135.007300 	 2.156933 
-134.016500 	 2.283490 
-133.016100 	 2.409984 
-131.988200 	 2.533575 
-130.973300 	 2.654075 
-129.975000 	 2.764501 
-128.971900 	 2.870920 
-128.001600 	 2.973057 
-127.032400 	 3.079998 
-126.027600 	 3.193492 
-125.023400 	 3.304608 
-124.018100 	 3.423282 
-123.017300 	 3.543667 
-122.013800 	 3.654051 
-121.017900 	 3.769314 
-120.003100 	 3.879168 
-118.983800 	 3.979394 
-117.975200 	 4.079093 
-116.983300 	 4.171750 
-116.017500 	 4.261828 
-115.004800 	 4.352696 
-114.020600 	 4.448321 
-112.997000 	 4.549401 
-111.962900 	 4.644397 
-110.985400 	 4.736688 
-109.991200 	 4.824916 
-108.993000 	 4.899179 
-107.995600 	 4.975215 
-106.977400 	 5.052906 
-105.949000 	 5.119999 
-104.951900 	 5.188295 
-103.932200 	 5.254508 
-102.929200 	 5.313056 
-101.942000 	 5.373323 
-100.929700 	 5.432446 
-99.946970 	 5.486857 
-98.965580 	 5.534192 
-97.993840 	 5.575905 
-97.010250 	 5.617654 
-96.021700 	 5.657389 
-95.026890 	 5.701364 
-93.984000 	 5.749301 
-92.978260 	 5.787543 
-91.980450 	 5.820015 
-90.968350 	 5.849412 
-90.002180 	 5.866769 
-89.012520 	 5.885092 
-88.020720 	 5.903934 
-87.031490 	 5.917900 
-86.028080 	 5.935036 
-85.044710 	 5.949893 
-84.046590 	 5.965957 
-83.029080 	 5.980855 
-82.014270 	 5.991571 
-80.998520 	 6.002905 
-79.976330 	 6.002353 
-78.982100 	 5.995625 
-77.989630 	 5.988631 
-76.996770 	 5.975805 
-76.017810 	 5.966688 
-75.025230 	 5.962217 
-74.024570 	 5.955336 
-73.001110 	 5.950582 
-72.010880 	 5.939770 
-71.007260 	 5.924168 
-70.025800 	 5.906613 
-69.039540 	 5.887461 
-68.022740 	 5.871910 
-67.040750 	 5.851878 
-66.021560 	 5.831041 
-65.035470 	 5.806014 
-64.049900 	 5.781550 
-63.040250 	 5.760197 
-62.046870 	 5.741088 
-61.032760 	 5.718244 
-60.027150 	 5.691653 
-59.025010 	 5.665353 
-58.025690 	 5.632866 
-57.037320 	 5.605692 
-56.018920 	 5.576552 
-55.007150 	 5.549440 
-53.997590 	 5.516453 
-52.981840 	 5.483396 
-51.985010 	 5.451382 
-50.995030 	 5.414877 
-50.000410 	 5.384748 
-49.001460 	 5.356087 
-48.015830 	 5.326285 
-47.031300 	 5.294982 
-46.019040 	 5.264390 
-45.022490 	 5.228136 
-44.016060 	 5.192503 
-42.984980 	 5.158006 
-42.001520 	 5.119740 
-41.009740 	 5.083536 
-40.022560 	 5.046622 
-39.023360 	 5.012326 
-38.003850 	 4.980004 
-36.980830 	 4.948647 
-35.949740 	 4.917056 
-34.953290 	 4.882162 
-33.963180 	 4.845825 
-32.988390 	 4.810821 
-32.006500 	 4.777226 
-31.008300 	 4.743101 
-29.992870 	 4.710731 
-28.980780 	 4.675107 
-27.959930 	 4.638748 
-26.960950 	 4.603655 
-25.980960 	 4.568459 
-24.985650 	 4.536590 
-24.016490 	 4.503947 
-23.023580 	 4.471091 
-22.026000 	 4.438868 
-21.017980 	 4.407117 
-20.004890 	 4.378452 
-19.001040 	 4.349765 
-17.991940 	 4.317736 
-16.972910 	 4.287227 
-15.958640 	 4.252112 
-14.953590 	 4.219371 
-13.964770 	 4.188487 
-13.019020 	 4.154608 
-12.029780 	 4.124310 
-11.019050 	 4.093919 
-10.011310 	 4.064743 
-8.970182 	 4.038691 
-7.961399 	 4.012301 
-6.984431 	 3.984375 
-5.959186 	 3.957112 
-4.936897 	 3.927607 
-3.971519 	 3.893596 
-2.980798 	 3.861991 
-2.029834 	 3.831316 
-1.078160 	 3.801172 
-0.090510 	 3.776312 
0.890949 	 3.753080 
1.877774 	 3.729661 
2.865655 	 3.705048 
3.873531 	 3.680787 
4.878120 	 3.654673 
5.889166 	 3.628139 
6.895687 	 3.605337 
7.902952 	 3.581243 
8.894185 	 3.556124 
9.881901 	 3.530857 
10.876570 	 3.506743 
11.870280 	 3.483284 
12.860450 	 3.462219 
13.858140 	 3.442480 
14.868920 	 3.420840 
15.847430 	 3.398684 
16.862210 	 3.377369 
17.864850 	 3.358002 
18.828940 	 3.335986 
19.827370 	 3.315539 
20.836530 	 3.293332 
21.857940 	 3.269116 
22.888490 	 3.247175 
23.896780 	 3.225800 
24.887550 	 3.205693 
25.856900 	 3.183764 
26.825670 	 3.163447 
27.824500 	 3.144625 
28.801590 	 3.126942 
29.794580 	 3.111695 
30.811040 	 3.096302 
31.816700 	 3.076352 
32.840910 	 3.054900 
33.878720 	 3.034863 
34.874650 	 3.012802 
35.866930 	 2.993977 
36.861080 	 2.976249 
37.822100 	 2.958526 
38.792580 	 2.942844 
39.789460 	 2.929913 
40.785030 	 2.916989 
41.787000 	 2.903180 
42.823170 	 2.888505 
43.815230 	 2.872259 
44.814850 	 2.855721 
45.814800 	 2.838052 
46.818860 	 2.823606 
47.817640 	 2.807099 
48.799880 	 2.791817 
49.803300 	 2.778081 
50.782900 	 2.764706 
51.799880 	 2.753767 
52.824780 	 2.742748 
53.835040 	 2.731217 
54.844890 	 2.717647 
55.829930 	 2.704894 
56.799630 	 2.690716 
57.799390 	 2.678120 
58.768060 	 2.664265 
59.772610 	 2.651547 
60.793350 	 2.641208 
61.800170 	 2.629754 
62.826260 	 2.620246 
63.831700 	 2.608668 
64.825070 	 2.596210 
65.822120 	 2.585764 
66.813530 	 2.576067 
67.818080 	 2.567915 
68.812280 	 2.559391 
69.794780 	 2.547900 
70.800090 	 2.536892 
71.791000 	 2.524235 
72.803770 	 2.512293 
73.816790 	 2.503572 
74.802370 	 2.494114 
75.777600 	 2.483747 
76.753020 	 2.474083 
77.741220 	 2.465116 
78.754340 	 2.457942 
79.782360 	 2.453662 
80.793660 	 2.447075 
81.795260 	 2.438853 
82.786740 	 2.430130 
83.771580 	 2.420894 
84.778480 	 2.413414 
85.761410 	 2.404239 
86.753860 	 2.394887 
87.755420 	 2.386014 
88.754370 	 2.378724 
89.750050 	 2.371718 
90.743380 	 2.363015 
91.762210 	 2.355839 
92.764100 	 2.346471 
93.781470 	 2.342171 
94.807500 	 2.338125 
95.796900 	 2.333094 
96.787760 	 2.325366 
97.807970 	 2.318584 
98.806220 	 2.314338 
99.811490 	 2.307278 
100.815800 	 2.304599 
101.791200 	 2.296621 
102.794700 	 2.289832 
103.809800 	 2.284917 
104.832000 	 2.278928 
105.834500 	 2.275329 
106.826000 	 2.268614 
107.804400 	 2.262064 
108.764300 	 2.254688 
109.753000 	 2.248525 
110.767500 	 2.246242 
111.780100 	 2.243615 
112.812400 	 2.242754 
113.838400 	 2.240793 
114.827200 	 2.235836 
115.803200 	 2.230491 
116.800800 	 2.229362 
117.773100 	 2.226804 
118.734900 	 2.223540 
119.743200 	 2.220335 
120.729800 	 2.214557 
121.750300 	 2.209495 
122.785000 	 2.207678 
123.765800 	 2.207011 
124.779700 	 2.204964 
125.771400 	 2.201798 
126.747000 	 2.197017 
127.750500 	 2.194536 
128.726500 	 2.193911 
129.721600 	 2.198368 
130.722700 	 2.198720 
131.738700 	 2.196609 
132.752700 	 2.194109 
133.747200 	 2.188468 
134.759500 	 2.188141 
135.751200 	 2.187183 
136.741000 	 2.187056 
137.735000 	 2.188139 
138.717400 	 2.188304 
139.721800 	 2.191376 
140.724900 	 2.195534 
141.740300 	 2.199210 
142.756500 	 2.202813 
143.753800 	 2.204970 
144.757200 	 2.203975 
145.755000 	 2.203424 
146.749700 	 2.201997 
147.737600 	 2.203631 
148.747700 	 2.206745 
149.747000 	 2.209724 
150.766200 	 2.216808 
151.816700 	 2.221260 
152.815800 	 2.225910 
153.838100 	 2.230664 
154.827100 	 2.232347 
155.791800 	 2.234478 
156.775800 	 2.236439 
157.735500 	 2.236645 
158.726700 	 2.237878 
159.710100 	 2.238992 
160.727700 	 2.242949 
161.756200 	 2.249331 
162.769900 	 2.252193 
163.771100 	 2.256636 
164.755200 	 2.257955 
165.721800 	 2.258921 
166.715500 	 2.264261 
167.737000 	 2.269354 
168.738300 	 2.271943 
169.758700 	 2.274738 
170.760700 	 2.274732 
171.766900 	 2.273179 
172.765700 	 2.275655 
173.777500 	 2.278556 
174.800100 	 2.283175 
175.786200 	 2.284758 
176.768100 	 2.286315 
177.775000 	 2.289304 
178.740500 	 2.291238 
179.734200 	 2.299208 
180.745800 	 2.303456 
181.724700 	 2.303819 
182.730600 	 2.304068 
183.742000 	 2.302007 
184.745500 	 2.300987 
185.733100 	 2.300905 
186.738100 	 2.301339 
187.721800 	 2.302525 
188.715500 	 2.303579 
189.724700 	 2.306231 
190.718500 	 2.309569 
191.731100 	 2.311071 
192.743400 	 2.312665 
193.748100 	 2.313293 
194.742800 	 2.309809 
195.721300 	 2.306544 
196.719100 	 2.303946 
197.715700 	 2.300797 
198.733200 	 2.300772 
199.766500 	 2.302871 
200.790200 	 2.304129 
201.786800 	 2.304866 
202.798700 	 2.304113 
203.780200 	 2.301864 
204.745300 	 2.298442 
205.756100 	 2.297182 
206.732400 	 2.295489 
207.727100 	 2.291680 
208.718000 	 2.287902 
209.704300 	 2.284724 
210.699000 	 2.282343 
211.703300 	 2.282039 
212.720600 	 2.283538 
213.745700 	 2.281597 
214.750000 	 2.278358 
215.744600 	 2.275360 
216.740200 	 2.273289 
217.700400 	 2.271659 
218.685000 	 2.269629 
219.686200 	 2.266054 
220.689300 	 2.260556 
221.711700 	 2.254761 
222.718700 	 2.251572 
223.716300 	 2.248309 
224.711300 	 2.245671 
225.712000 	 2.242443 
226.715100 	 2.237201 
227.715400 	 2.233809 
228.714100 	 2.231551 
229.702800 	 2.231597 
230.708800 	 2.228450 
231.732600 	 2.225197 
232.731500 	 2.218336 
233.729000 	 2.211147 
234.701600 	 2.208004 
235.663400 	 2.203619 
236.643900 	 2.201635 
237.630100 	 2.198470 
238.637600 	 2.197411 
239.644000 	 2.194938 
240.660400 	 2.195631 
241.672100 	 2.193376 
242.654400 	 2.191128 
243.641200 	 2.189243 
244.624700 	 2.184420 
245.620300 	 2.181119 
246.646000 	 2.177260 
247.661300 	 2.175561 
248.682600 	 2.176836 
249.681300 	 2.180871 
250.668000 	 2.182762 
251.676800 	 2.181002 
252.679500 	 2.179493 
253.666100 	 2.174840 
254.670200 	 2.168993 
255.667900 	 2.169830 
256.667800 	 2.166059 
257.700700 	 2.165947 
258.718700 	 2.167158 
259.718900 	 2.163705 
260.706800 	 2.162034 
261.675200 	 2.159140 
262.653300 	 2.158964 
263.639500 	 2.160148 
264.646400 	 2.162764 
265.668300 	 2.163973 
266.684000 	 2.164066 
267.705100 	 2.164200 
268.688300 	 2.160648 
269.683500 	 2.159259 
270.668300 	 2.159104 
271.644000 	 2.158815 
272.619600 	 2.161130 
273.637700 	 2.165076 
274.646600 	 2.167747 
275.660000 	 2.172866 
276.710200 	 2.178261 
277.684000 	 2.180650 
278.692900 	 2.183704 
279.705300 	 2.183760 
280.699200 	 2.183952 
281.701800 	 2.184647 
282.696500 	 2.184487 
283.686500 	 2.185450 
284.653000 	 2.187099 
285.654400 	 2.191577 
286.648600 	 2.197410 
287.620500 	 2.202665 
288.648900 	 2.207932 
289.669800 	 2.212157 
290.652900 	 2.215554 
291.668800 	 2.221364 
292.671400 	 2.226226 
293.633000 	 2.228501 
294.671700 	 2.231804 
295.682200 	 2.232682 
296.670000 	 2.234248 
297.715800 	 2.239052 
298.718200 	 2.242769 
299.707600 	 2.247018 
300.709600 	 2.251726 
301.694800 	 2.256908 
302.689100 	 2.265162 
303.715600 	 2.274053 
304.733500 	 2.282441 
305.733500 	 2.288079 
306.722300 	 2.290856 
307.721300 	 2.293897 
308.717100 	 2.297924 
309.704700 	 2.302459 
310.688800 	 2.308086 
311.663700 	 2.314365 
312.646900 	 2.320112 
313.633900 	 2.328223 
314.640200 	 2.337344 
315.660200 	 2.348009 
316.668800 	 2.357316 
317.680500 	 2.365613 
318.674200 	 2.372739 
319.646400 	 2.376332 
320.627500 	 2.380894 
321.633000 	 2.388102 
322.646400 	 2.393655 
323.660000 	 2.401803 
324.680800 	 2.413229 
325.679700 	 2.423120 
326.685100 	 2.435457 
327.698600 	 2.447941 
328.697700 	 2.457018 
329.699900 	 2.464879 
330.690600 	 2.473593 
331.676300 	 2.480192 
332.657100 	 2.487966 
333.638500 	 2.496629 
334.636700 	 2.506766 
335.609900 	 2.518678 
336.624400 	 2.531066 
337.625900 	 2.545372 
338.623500 	 2.556073 
339.654000 	 2.567791 
340.656600 	 2.581328 
341.663800 	 2.594820 
342.644700 	 2.608080 
343.648300 	 2.619465 
344.648700 	 2.629183 
345.648200 	 2.639231 
346.665200 	 2.652052 
347.636000 	 2.666795 
348.630800 	 2.682414 
349.630200 	 2.694660 
350.623300 	 2.707001 
351.657600 	 2.719420 
352.674500 	 2.733073 
353.692700 	 2.752406 
354.712600 	 2.769686 
355.700000 	 2.785289 
356.695600 	 2.798939 
357.685300 	 2.809863 
358.673900 	 2.823427 
359.663900 	 2.839181 
360.639800 	 2.853362 
361.630200 	 2.869501 
362.615700 	 2.884571 
363.603600 	 2.900262 
364.611400 	 2.920722 
365.624100 	 2.939040 
366.643400 	 2.960101 
367.668700 	 2.979158 
368.670500 	 2.996156 
369.660400 	 3.013906 
370.659600 	 3.029097 
371.639600 	 3.047547 
372.636100 	 3.068266 
373.638300 	 3.088959 
374.640400 	 3.113582 
375.653000 	 3.139458 
376.671900 	 3.163224 
377.671800 	 3.189666 
378.690500 	 3.213964 
379.708800 	 3.236857 
380.691200 	 3.259713 
381.688600 	 3.280876 
382.661800 	 3.302582 
383.622600 	 3.324449 
384.631300 	 3.350971 
385.643900 	 3.381849 
386.650500 	 3.411130 
387.664200 	 3.438133 
388.642600 	 3.466448 
389.603000 	 3.488831 
390.582800 	 3.517120 
391.583100 	 3.551717 
392.574400 	 3.581737 
393.599300 	 3.615996 
394.593700 	 3.648231 
395.589000 	 3.679135 
396.590500 	 3.711171 
397.593600 	 3.747120 
398.617900 	 3.785490 
399.603000 	 3.821393 
400.617100 	 3.858119 
401.628800 	 3.895801 
402.633400 	 3.930853 
403.687700 	 3.972192 
404.698000 	 4.019153 
405.675300 	 4.058527 
406.686300 	 4.103494 
407.654900 	 4.143178 
408.661900 	 4.184340 
409.688600 	 4.231104 
410.666300 	 4.274228 
411.680700 	 4.323095 
412.665200 	 4.368844 
413.637900 	 4.416514 
414.649700 	 4.470711 
415.635100 	 4.524995 
416.645200 	 4.580769 
417.677100 	 4.639679 
418.696100 	 4.692716 
419.705700 	 4.744774 
420.682600 	 4.798605 
421.643700 	 4.851510 
422.602300 	 4.910042 
423.589700 	 4.974346 
424.577800 	 5.042192 
425.596200 	 5.113952 
426.593000 	 5.183853 
427.609300 	 5.254991 
428.634200 	 5.324591 
429.632900 	 5.393517 
430.676600 	 5.468305 
431.662900 	 5.540146 
432.629400 	 5.613667 
433.624800 	 5.692090 
434.568300 	 5.771267 
435.555300 	 5.857172 
436.603800 	 5.949117 
437.590900 	 6.038245 
438.595400 	 6.129311 
439.609400 	 6.218919 
440.581800 	 6.307965 
441.564100 	 6.405456 
442.582500 	 6.503722 
443.576000 	 6.608274 
444.586700 	 6.715196 
445.618800 	 6.822727 
446.629500 	 6.933389 
447.620300 	 7.045301 
448.613100 	 7.160760 
449.603800 	 7.278577 
450.577700 	 7.394176 
451.569000 	 7.515319 
452.567700 	 7.642883 
453.561800 	 7.772400 
454.592800 	 7.916013 
455.617200 	 8.061216 
456.631600 	 8.204784 
457.658000 	 8.351095 
458.651500 	 8.494202 
459.652200 	 8.636181 
460.626400 	 8.781403 
461.608600 	 8.933955 
462.600600 	 9.094387 
463.585200 	 9.261243 
464.591100 	 9.436728 
465.605600 	 9.621036 
466.597300 	 9.800220 
467.595600 	 9.988347 
468.605400 	 10.179370 
469.579400 	 10.361100 
470.572700 	 10.551520 
471.566000 	 10.743870 
472.567500 	 10.936940 
473.566100 	 11.143230 
474.584400 	 11.362060 
475.583600 	 11.586310 
476.565200 	 11.813710 
477.573100 	 12.041740 
478.575800 	 12.266840 
479.593700 	 12.481670 
480.588900 	 12.702910 
481.603100 	 12.932330 
482.588200 	 13.150310 
483.571600 	 13.378230 
484.595100 	 13.609200 
485.577000 	 13.830930 
486.572300 	 14.060260 
487.558000 	 14.289800 
488.540900 	 14.507620 
489.533300 	 14.717890 
490.522100 	 14.923800 
491.526400 	 15.125370 
492.527200 	 15.325510 
493.544900 	 15.529270 
494.564800 	 15.744340 
495.582500 	 15.952970 
496.588200 	 16.161760 
497.589400 	 16.376260 
498.582900 	 16.577430 
499.577300 	 16.781630 
500.580900 	 16.992200 
501.581200 	 17.199510 
502.578200 	 17.415810 
503.577900 	 17.642640 
504.599000 	 17.872010 
505.608000 	 18.108980 
506.625500 	 18.347690 
507.652500 	 18.586540 
508.640600 	 18.823580 
509.620100 	 19.052070 
510.595500 	 19.282340 
511.575300 	 19.510920 
512.559900 	 19.744490 
513.556800 	 19.994490 
514.558700 	 20.246730 
515.573500 	 20.505670 
516.577800 	 20.767240 
517.579300 	 21.021030 
518.604100 	 21.278820 
519.575300 	 21.532570 
520.558200 	 21.784130 
521.554600 	 22.041960 
522.548500 	 22.297010 
523.549000 	 22.558070 
524.553500 	 22.829820 
525.564600 	 23.105020 
526.569400 	 23.387400 
527.590400 	 23.667860 
528.599600 	 23.942330 
529.605500 	 24.215560 
530.580500 	 24.480310 
531.566800 	 24.751140 
532.575100 	 25.029170 
533.562500 	 25.305240 
534.581400 	 25.594550 
535.581100 	 25.884850 
536.577100 	 26.167900 
537.572100 	 26.457260 
538.565300 	 26.740360 
539.579000 	 27.017170 
540.565600 	 27.294830 
541.555300 	 27.561510 
542.536100 	 27.834550 
543.517900 	 28.110630 
544.512000 	 28.396150 
545.521000 	 28.700070 
546.540600 	 28.990860 
547.524600 	 29.284530 
548.544600 	 29.570170 
549.532000 	 29.842090 
550.517300 	 30.121670 
551.541400 	 30.405540 
552.524300 	 30.685350 
553.528900 	 30.974960 
554.510700 	 31.263240 
555.517600 	 31.545450 
556.532600 	 31.831020 
557.544400 	 32.114520 
558.579800 	 32.401090 
559.569700 	 32.682720 
560.564200 	 32.958690 
561.570400 	 33.231320 
562.542400 	 33.498620 
563.554700 	 33.771390 
564.544400 	 34.043070 
565.551500 	 34.304250 
566.574100 	 34.561000 
567.542500 	 34.810850 
568.528800 	 35.057700 
569.516600 	 35.319570 
570.513400 	 35.580620 
571.533100 	 35.844700 
572.551300 	 36.104910 
573.542900 	 36.346860 
574.524100 	 36.576000 
575.516400 	 36.792340 
576.512300 	 37.011540 
577.510700 	 37.240250 
578.520300 	 37.466490 
579.526300 	 37.699470 
580.536900 	 37.931790 
581.537000 	 38.144700 
582.550000 	 38.364660 
583.560600 	 38.577330 
584.552600 	 38.768790 
585.556900 	 38.958600 
586.545400 	 39.135120 
587.522000 	 39.303840 
588.518200 	 39.477180 
589.534700 	 39.659070 
590.533900 	 39.844700 
591.551200 	 40.019080 
592.572400 	 40.186630 
593.575400 	 40.344200 
594.577800 	 40.476570 
595.572400 	 40.610000 
596.563200 	 40.749400 
597.539000 	 40.873360 
598.522500 	 41.006210 
599.531900 	 41.142420 
600.529400 	 41.264630 
601.544700 	 41.386380 
602.565300 	 41.502980 
603.568500 	 41.606280 
604.572300 	 41.693900 
605.547100 	 41.772050 
606.558200 	 41.848140 
607.545100 	 41.913280 
608.560300 	 41.987270 
609.598300 	 42.077880 
610.599700 	 42.149480 
611.611200 	 42.215000 
612.600100 	 42.271640 
613.576700 	 42.296710 
614.561300 	 42.317830 
615.548600 	 42.340010 
616.567500 	 42.354100 
617.565400 	 42.366340 
618.558300 	 42.378850 
619.565800 	 42.389460 
620.540200 	 42.398280 
621.544200 	 42.404080 
622.566200 	 42.412510 
623.555000 	 42.402570 
624.537500 	 42.372390 
625.532100 	 42.342430 
626.513200 	 42.295850 
627.521100 	 42.254460 
628.550700 	 42.226170 
629.546300 	 42.188240 
630.503200 	 42.151830 
631.505100 	 42.106880 
632.486200 	 42.051450 
633.490800 	 41.991950 
634.521400 	 41.920780 
635.517800 	 41.847600 
636.513100 	 41.768120 
637.508300 	 41.679990 
638.525900 	 41.597200 
639.514300 	 41.515050 
640.529600 	 41.431170 
641.551300 	 41.352060 
642.553800 	 41.260020 
643.566500 	 41.157560 
644.529800 	 41.046710 
645.488800 	 40.924100 
646.454800 	 40.811150 
647.444800 	 40.697040 
648.464500 	 40.587560 
649.492200 	 40.484580 
650.523600 	 40.371200 
651.530900 	 40.254170 
652.536800 	 40.132990 
653.531900 	 40.002980 
654.531400 	 39.871300 
655.522800 	 39.733560 
656.517500 	 39.593270 
657.510400 	 39.456030 
658.516800 	 39.315650 
659.492700 	 39.187550 
660.520000 	 39.061520 
661.539700 	 38.924180 
662.535500 	 38.787970 
663.579600 	 38.638500 
664.554800 	 38.479110 
665.549900 	 38.326550 
666.545300 	 38.174910 
667.525600 	 38.023140 
668.504000 	 37.874980 
669.492700 	 37.727430 
670.479900 	 37.580250 
671.473100 	 37.432820 
672.499100 	 37.287160 
673.517900 	 37.141630 
674.525500 	 36.981040 
675.519600 	 36.823230 
676.501300 	 36.667840 
677.467400 	 36.506730 
678.453800 	 36.361620 
679.450800 	 36.218670 
680.462800 	 36.069610 
681.465800 	 35.919980 
682.485000 	 35.768220 
683.513300 	 35.613070 
684.487100 	 35.456830 
685.511500 	 35.303160 
686.513000 	 35.155030 
687.492100 	 35.002370 
688.529200 	 34.855990 
689.526500 	 34.716220 
690.503500 	 34.568280 
691.514200 	 34.425850 
692.504900 	 34.283920 
693.488500 	 34.132970 
694.502300 	 33.981250 
695.467200 	 33.833260 
696.462000 	 33.686610 
697.444000 	 33.545440 
698.440100 	 33.412710 
699.464800 	 33.281150 
700.470000 	 33.147420 
701.492400 	 33.009260 
702.492100 	 32.876070 
703.476900 	 32.737900 
704.463300 	 32.605820 
705.471200 	 32.479610 
706.468100 	 32.347270 
707.459200 	 32.217530 
708.470800 	 32.087940 
709.453700 	 31.955830 
710.455200 	 31.828840 
711.498200 	 31.707640 
712.507000 	 31.583960 
713.521400 	 31.464300 
714.521300 	 31.343870 
715.537400 	 31.224970 
716.532300 	 31.107960 
717.543200 	 30.989400 
718.560900 	 30.874680 
719.522600 	 30.750250 
720.505900 	 30.630480 
721.506200 	 30.515210 
722.475700 	 30.397130 
723.474200 	 30.288170 
724.483100 	 30.183120 
725.473800 	 30.074390 
726.479900 	 29.968030 
727.491900 	 29.862710 
728.496900 	 29.751890 
729.481800 	 29.644100 
730.489900 	 29.539300 
731.489500 	 29.434430 
732.479700 	 29.331900 
733.478400 	 29.231780 
734.480100 	 29.136630 
735.484100 	 29.040750 
736.476500 	 28.947570 
737.506800 	 28.856390 
738.507400 	 28.759380 
739.512600 	 28.664290 
740.526200 	 28.571830 
741.490200 	 28.476580 
742.485800 	 28.384740 
743.473600 	 28.294720 
744.464700 	 28.204730 
745.470800 	 28.117400 
746.478400 	 28.031090 
747.465800 	 27.945960 
748.458900 	 27.860360 
749.464700 	 27.773870 
750.462600 	 27.690730 
751.480300 	 27.607480 
752.506300 	 27.526710 
753.522900 	 27.449640 
754.490800 	 27.368190 
755.487400 	 27.288760 
756.494200 	 27.208140 
757.476000 	 27.127040 
758.500400 	 27.049480 
759.494800 	 26.971490 
760.474700 	 26.895970 
761.480700 	 26.823350 
762.480000 	 26.753030 
763.513200 	 26.684610 
764.523200 	 26.615700 
765.527500 	 26.544160 
766.548300 	 26.471630 
767.524000 	 26.399840 
768.505400 	 26.327690 
769.493800 	 26.260280 
770.461900 	 26.191920 
771.438700 	 26.124110 
772.434300 	 26.059940 
773.423800 	 25.993800 
774.443200 	 25.934080 
775.462800 	 25.873430 
776.485000 	 25.811860 
777.511200 	 25.751080 
778.511400 	 25.685790 
779.516100 	 25.623360 
780.513500 	 25.560420 
781.491800 	 25.498710 
782.493300 	 25.440830 
783.481700 	 25.382560 
784.490500 	 25.327840 
785.516100 	 25.274520 
786.519600 	 25.219020 
787.521400 	 25.165720 
788.526400 	 25.111430 
789.515700 	 25.054710 
790.511500 	 25.001350 
791.507800 	 24.945440 
792.496500 	 24.889190 
793.487900 	 24.836370 
794.486900 	 24.783890 
795.497500 	 24.732900 
796.518200 	 24.682570 
797.525300 	 24.632640 
798.046900 	 24.538410 
798.075400 	 24.421550 
797.550000 	 24.286780 
796.558800 	 24.135180 
795.566200 	 24.013050 
794.569600 	 23.903180 
793.600500 	 23.799200 
792.633600 	 23.699100 
791.661800 	 23.602650 
790.651900 	 23.506180 
789.660800 	 23.413200 
788.647900 	 23.322470 
787.604500 	 23.232890 
786.607900 	 23.147440 
785.614700 	 23.063920 
784.600200 	 22.983370 
783.625300 	 22.906420 
782.645800 	 22.829270 
781.637600 	 22.753290 
780.666800 	 22.679090 
779.664900 	 22.604510 
778.642900 	 22.530680 
777.627100 	 22.456570 
776.618800 	 22.383430 
775.618000 	 22.313400 
774.608100 	 22.245360 
773.622300 	 22.179000 
772.637600 	 22.112210 
771.644700 	 22.042580 
770.665900 	 21.973530 
769.653700 	 21.905160 
768.639800 	 21.836740 
767.641600 	 21.771200 
766.663800 	 21.707650 
765.676400 	 21.643800 
764.668800 	 21.582610 
763.669000 	 21.522560 
762.650900 	 21.462590 
761.652500 	 21.403200 
760.672700 	 21.343900 
759.667700 	 21.283440 
758.661100 	 21.220910 
757.648800 	 21.161770 
756.650700 	 21.104410 
755.649200 	 21.046820 
754.638500 	 20.991670 
753.631800 	 20.935250 
752.637100 	 20.874220 
751.629700 	 20.814450 
750.632200 	 20.754110 
749.648300 	 20.694050 
748.607100 	 20.636920 
747.590800 	 20.582670 
746.587800 	 20.527280 
745.575400 	 20.472850 
744.580900 	 20.419460 
743.591100 	 20.367560 
742.597700 	 20.314700 
741.613900 	 20.261930 
740.634200 	 20.211380 
739.651100 	 20.155160 
738.684900 	 20.102730 
737.685700 	 20.048210 
736.661700 	 19.992990 
735.645300 	 19.938280 
734.597200 	 19.884040 
733.580400 	 19.831290 
732.588900 	 19.776940 
731.585600 	 19.724590 
730.590000 	 19.672950 
729.607200 	 19.622070 
728.600500 	 19.571430 
727.635900 	 19.521520 
726.659900 	 19.469470 
725.661000 	 19.416410 
724.681900 	 19.367610 
723.662500 	 19.316690 
722.640100 	 19.268300 
721.657000 	 19.220770 
720.665000 	 19.167290 
719.669300 	 19.115540 
718.695900 	 19.062250 
717.685400 	 19.009170 
716.665400 	 18.957950 
715.675500 	 18.906770 
714.663300 	 18.854570 
713.653200 	 18.802810 
712.663100 	 18.750080 
711.670000 	 18.698910 
710.695200 	 18.648450 
709.700600 	 18.596500 
708.697700 	 18.545360 
707.682400 	 18.490340 
706.645900 	 18.436570 
705.618200 	 18.383950 
704.616500 	 18.332350 
703.591900 	 18.285010 
702.616400 	 18.236560 
701.641700 	 18.185860 
700.642900 	 18.134100 
699.664600 	 18.078170 
698.642900 	 18.022720 
697.624000 	 17.968570 
696.605500 	 17.914330 
695.604700 	 17.862730 
694.601500 	 17.808950 
693.593900 	 17.758580 
692.641100 	 17.708590 
691.635100 	 17.656850 
690.652700 	 17.606230 
689.698000 	 17.553000 
688.667200 	 17.495120 
687.666500 	 17.437440 
686.643200 	 17.379910 
685.607800 	 17.320900 
684.625200 	 17.268880 
683.624100 	 17.216740 
682.655600 	 17.164460 
681.677900 	 17.110650 
680.661400 	 17.052970 
679.670700 	 16.995860 
678.652700 	 16.934950 
677.638800 	 16.876690 
676.646600 	 16.819400 
675.647000 	 16.758610 
674.653800 	 16.701790 
673.650300 	 16.646500 
672.649200 	 16.589060 
671.646500 	 16.533740 
670.656000 	 16.478300 
669.678500 	 16.416660 
668.684000 	 16.354190 
667.679200 	 16.291790 
666.674000 	 16.229050 
665.662200 	 16.169980 
664.691500 	 16.114040 
663.720300 	 16.057120 
662.715100 	 15.995930 
661.724500 	 15.930750 
660.689500 	 15.865500 
659.662800 	 15.795530 
658.664200 	 15.725900 
657.657800 	 15.660030 
656.661200 	 15.589540 
655.642200 	 15.523980 
654.622700 	 15.461350 
653.633500 	 15.398840 
652.637800 	 15.337850 
651.668800 	 15.274790 
650.682600 	 15.209520 
649.660600 	 15.138210 
648.651800 	 15.064350 
647.628300 	 14.993100 
646.637800 	 14.921420 
645.640600 	 14.851510 
644.651900 	 14.786940 
643.659800 	 14.716300 
642.652800 	 14.644470 
641.671600 	 14.573180 
640.654400 	 14.497300 
639.666700 	 14.424150 
638.683800 	 14.349420 
637.673600 	 14.273730 
636.690400 	 14.197180 
635.688900 	 14.119050 
634.670000 	 14.043190 
633.661600 	 13.969630 
632.667100 	 13.895010 
631.678800 	 13.821130 
630.681800 	 13.743820 
629.708000 	 13.661610 
628.722000 	 13.582850 
627.706700 	 13.500540 
626.706200 	 13.420490 
625.702400 	 13.342220 
624.674800 	 13.258490 
623.683700 	 13.177380 
622.695800 	 13.093830 
621.689900 	 13.008990 
620.713900 	 12.924970 
619.729700 	 12.840150 
618.732800 	 12.753840 
617.727700 	 12.666990 
616.724100 	 12.580520 
615.721500 	 12.494380 
614.726600 	 12.409810 
613.751100 	 12.327600 
612.772300 	 12.246800 
611.782000 	 12.160590 
610.780400 	 12.071690 
609.763200 	 11.978810 
608.719800 	 11.880830 
607.702000 	 11.785820 
606.695200 	 11.692420 
605.675200 	 11.597820 
604.684500 	 11.505960 
603.698100 	 11.415100 
602.692500 	 11.323550 
601.733000 	 11.232950 
600.738400 	 11.141960 
599.743100 	 11.048300 
598.743200 	 10.949520 
597.718800 	 10.849710 
596.716600 	 10.748260 
595.684100 	 10.646770 
594.661900 	 10.550060 
593.674700 	 10.458290 
592.652400 	 10.362510 
591.665200 	 10.270540 
590.693800 	 10.176180 
589.658100 	 10.075330 
588.687000 	 9.981260 
587.682900 	 9.882236 
586.687500 	 9.784929 
585.702300 	 9.686976 
584.680400 	 9.584764 
583.681200 	 9.484523 
582.675000 	 9.383624 
581.680700 	 9.286128 
580.694400 	 9.189830 
579.688000 	 9.090836 
578.675900 	 8.989614 
577.662300 	 8.889189 
576.655400 	 8.787825 
575.649500 	 8.690100 
574.668800 	 8.598572 
573.703700 	 8.504229 
572.721700 	 8.410202 
571.717700 	 8.312609 
570.733900 	 8.210854 
569.725000 	 8.108186 
568.690700 	 8.004273 
567.700200 	 7.903182 
566.677400 	 7.800772 
565.657800 	 7.700451 
564.677600 	 7.605321 
563.694500 	 7.510938 
562.714200 	 7.419518 
561.760400 	 7.328808 
560.779500 	 7.233600 
559.769300 	 7.134884 
558.748200 	 7.033015 
557.707700 	 6.929842 
556.690500 	 6.829525 
555.679800 	 6.732781 
554.675400 	 6.639553 
553.671400 	 6.547816 
552.654800 	 6.453019 
551.669600 	 6.359951 
550.651500 	 6.265645 
549.670100 	 6.170292 
548.694800 	 6.077756 
547.676800 	 5.980935 
546.677200 	 5.886420 
545.660400 	 5.793332 
544.633600 	 5.699132 
543.624300 	 5.608203 
542.638500 	 5.518394 
541.635400 	 5.433399 
540.664100 	 5.351436 
539.693200 	 5.269698 
538.708500 	 5.187811 
537.739100 	 5.103147 
536.739100 	 5.017031 
535.736300 	 4.933986 
534.732300 	 4.849699 
533.722800 	 4.764657 
532.736500 	 4.681746 
531.745400 	 4.598309 
530.732400 	 4.517332 
529.739000 	 4.439260 
528.718700 	 4.360853 
527.702700 	 4.283062 
526.713000 	 4.203366 
525.694800 	 4.123468 
524.707200 	 4.046185 
523.702100 	 3.969803 
522.705700 	 3.897367 
521.717900 	 3.826884 
520.710900 	 3.757005 
519.743000 	 3.687446 
518.740100 	 3.618164 
517.723900 	 3.548038 
516.737700 	 3.478957 
515.722600 	 3.409660 
514.736600 	 3.340364 
513.743500 	 3.272390 
512.734400 	 3.203890 
511.745600 	 3.140894 
510.753500 	 3.079640 
509.770900 	 3.019454 
508.782800 	 2.960234 
507.783900 	 2.898405 
506.753500 	 2.835326 
505.744100 	 2.772640 
504.726800 	 2.712048 
503.702800 	 2.652628 
502.703600 	 2.596010 
501.703400 	 2.542162 
500.723100 	 2.489789 
499.751300 	 2.436806 
498.784500 	 2.384980 
497.791100 	 2.332605 
496.776300 	 2.277632 
495.749800 	 2.224549 
494.728200 	 2.171985 
493.724400 	 2.119898 
492.709000 	 2.070630 
491.715600 	 2.025447 
490.710100 	 1.980449 
489.696800 	 1.936785 
488.716500 	 1.893358 
487.726600 	 1.849242 
486.740900 	 1.804119 
485.756700 	 1.759861 
484.752300 	 1.718086 
483.748400 	 1.673799 
482.730100 	 1.634459 
481.712200 	 1.596328 
480.697800 	 1.555924 
479.701300 	 1.518579 
478.700900 	 1.480026 
477.714200 	 1.439457 
476.712000 	 1.400364 
475.708500 	 1.360613 
474.719700 	 1.322474 
473.718400 	 1.286525 
472.738600 	 1.252076 
471.762100 	 1.221814 
470.781600 	 1.189394 
469.776500 	 1.158181 
468.766700 	 1.128008 
467.737200 	 1.094007 
466.701000 	 1.060430 
465.704000 	 1.027755 
464.707400 	 0.994953 
463.720100 	 0.964208 
462.733600 	 0.936998 
461.759800 	 0.908293 
460.766600 	 0.879052 
459.779800 	 0.849506 
458.810900 	 0.818654 
457.818700 	 0.787723 
456.803900 	 0.755706 
455.772800 	 0.724677 
454.751300 	 0.693817 
453.707300 	 0.664407 
452.728100 	 0.638836 
451.726700 	 0.613306 
450.746900 	 0.588215 
449.765300 	 0.563391 
448.746100 	 0.536240 
447.788800 	 0.509297 
446.776200 	 0.480910 
445.765700 	 0.452584 
444.793300 	 0.426719 
443.757000 	 0.397373 
442.739900 	 0.370459 
441.734600 	 0.341108 
440.701200 	 0.310835 
439.709600 	 0.282562 
438.721900 	 0.255186 
437.723500 	 0.226981 
436.739300 	 0.199135 
435.728900 	 0.169774 
434.726400 	 0.139596 
433.744900 	 0.114656 
432.741800 	 0.087937 
431.765500 	 0.062702 
430.761400 	 0.037421 
429.741100 	 0.010560 
428.745400 	 -0.015182 
427.730300 	 -0.037441 
426.721800 	 -0.061005 
425.745400 	 -0.084117 
424.757100 	 -0.102764 
423.760700 	 -0.123974 
422.760300 	 -0.142986 
421.768100 	 -0.159139 
420.791900 	 -0.178119 
419.807900 	 -0.196428 
418.836300 	 -0.213193 
417.840600 	 -0.229892 
416.816500 	 -0.248118 
415.817700 	 -0.261265 
414.805500 	 -0.273215 
413.795000 	 -0.285218 
412.795800 	 -0.292613 
411.787900 	 -0.300262 
410.801300 	 -0.308170 
409.824800 	 -0.315901 
408.843200 	 -0.323312 
407.853300 	 -0.331207 
406.858700 	 -0.339010 
405.847000 	 -0.345362 
404.842400 	 -0.350722 
403.818600 	 -0.357426 
402.804500 	 -0.363024 
401.804900 	 -0.366817 
400.798000 	 -0.372808 
399.821400 	 -0.376450 
398.841900 	 -0.378675 
397.832500 	 -0.383157 
396.807300 	 -0.386613 
395.784000 	 -0.389367 
394.781600 	 -0.392504 
393.761400 	 -0.394997 
392.752900 	 -0.396874 
391.773400 	 -0.396731 
390.760200 	 -0.397346 
389.776200 	 -0.397662 
388.783500 	 -0.396289 
387.775600 	 -0.399781 
386.775000 	 -0.401543 
385.775500 	 -0.402258 
384.791300 	 -0.403993 
383.775400 	 -0.403878 
382.795900 	 -0.404233 
381.800100 	 -0.404759 
380.804200 	 -0.406191 
379.817900 	 -0.405983 
378.804900 	 -0.405424 
377.792500 	 -0.405482 
376.764600 	 -0.406611 
375.767300 	 -0.405897 
374.756100 	 -0.406660 
373.759200 	 -0.406643 
372.776900 	 -0.402710 
371.782700 	 -0.401827 
370.806100 	 -0.399902 
369.820900 	 -0.399030 
368.821500 	 -0.400901 
367.815000 	 -0.402784 
366.798700 	 -0.404965 
365.786100 	 -0.406038 
364.793600 	 -0.405606 
363.775900 	 -0.404647 
362.786100 	 -0.403294 
361.788200 	 -0.399851 
360.809300 	 -0.397290 
359.836200 	 -0.393513 
358.828100 	 -0.390538 
357.836200 	 -0.389876 
356.823900 	 -0.390105 
355.811000 	 -0.392083 
354.802100 	 -0.392331 
353.797600 	 -0.391960 
352.787400 	 -0.390851 
351.794800 	 -0.388713 
350.801800 	 -0.388493 
349.802200 	 -0.390052 
348.804800 	 -0.391665 
347.817600 	 -0.393205 
346.793400 	 -0.395536 
345.784100 	 -0.396072 
344.772300 	 -0.396035 
343.766100 	 -0.395998 
342.777600 	 -0.395556 
341.766100 	 -0.393605 
340.781900 	 -0.391130 
339.765500 	 -0.389908 
338.771000 	 -0.387132 
337.790300 	 -0.386292 
336.768100 	 -0.387969 
335.776200 	 -0.386653 
334.766600 	 -0.384342 
333.757700 	 -0.382334 
332.763100 	 -0.378060 
331.787000 	 -0.378051 
330.814700 	 -0.380637 
329.820200 	 -0.384382 
328.832100 	 -0.388070 
327.815000 	 -0.389374 
326.820600 	 -0.391621 
325.810000 	 -0.391473 
324.804100 	 -0.391461 
323.791700 	 -0.392770 
322.755200 	 -0.391446 
321.779200 	 -0.388449 
320.801000 	 -0.386718 
319.802500 	 -0.384013 
318.848900 	 -0.382519 
317.840500 	 -0.384860 
316.857800 	 -0.385992 
315.851000 	 -0.385982 
314.826200 	 -0.384696 
313.825800 	 -0.384168 
312.802600 	 -0.384124 
311.825600 	 -0.385464 
310.829000 	 -0.388561 
309.843900 	 -0.390612 
308.831800 	 -0.391839 
307.822600 	 -0.393054 
306.821000 	 -0.394895 
305.821400 	 -0.394431 
304.832500 	 -0.396103 
303.825200 	 -0.398268 
302.817100 	 -0.398475 
301.815700 	 -0.398891 
300.822100 	 -0.397549 
299.836300 	 -0.396043 
298.857700 	 -0.395071 
297.845900 	 -0.396446 
296.802900 	 -0.397815 
295.800000 	 -0.397350 
294.783500 	 -0.397962 
293.780800 	 -0.399034 
292.815800 	 -0.400801 
291.818700 	 -0.403566 
290.811300 	 -0.407966 
289.800400 	 -0.410363 
288.781500 	 -0.409431 
287.765900 	 -0.410826 
286.760600 	 -0.411832 
285.766200 	 -0.412700 
284.760700 	 -0.418856 
283.747200 	 -0.421962 
282.754900 	 -0.422778 
281.755500 	 -0.425968 
280.773900 	 -0.424407 
279.818500 	 -0.425055 
278.822000 	 -0.426241 
277.790400 	 -0.427760 
276.782600 	 -0.430497 
275.732200 	 -0.435887 
274.741000 	 -0.438237 
273.781100 	 -0.440754 
272.780800 	 -0.444412 
271.783900 	 -0.447011 
270.752600 	 -0.448371 
269.750700 	 -0.447698 
268.779200 	 -0.447640 
267.824200 	 -0.447569 
266.851600 	 -0.454346 
265.847500 	 -0.461032 
264.826200 	 -0.467571 
263.796900 	 -0.471809 
262.787300 	 -0.473534 
261.808500 	 -0.474635 
260.823500 	 -0.475450 
259.848900 	 -0.479256 
258.868200 	 -0.482891 
257.879300 	 -0.488536 
256.869000 	 -0.495587 
255.865000 	 -0.500224 
254.856500 	 -0.505180 
253.853600 	 -0.510598 
252.866700 	 -0.516040 
251.877700 	 -0.519220 
250.900900 	 -0.522939 
249.900500 	 -0.526685 
248.898600 	 -0.529566 
247.899400 	 -0.534207 
246.858800 	 -0.542573 
245.813700 	 -0.549613 
244.799400 	 -0.554783 
243.789100 	 -0.560976 
242.815900 	 -0.561889 
241.864100 	 -0.563510 
240.862300 	 -0.570063 
239.840100 	 -0.576915 
238.830900 	 -0.585268 
237.811100 	 -0.595303 
236.818100 	 -0.604106 
235.822900 	 -0.612790 
234.831600 	 -0.620884 
233.828600 	 -0.629459 
232.841700 	 -0.636131 
231.859800 	 -0.639850 
230.864600 	 -0.646348 
229.872100 	 -0.651388 
228.876700 	 -0.657106 
227.880800 	 -0.668586 
226.874200 	 -0.680765 
225.875800 	 -0.690739 
224.861800 	 -0.701238 
223.844400 	 -0.708793 
222.839000 	 -0.714233 
221.841000 	 -0.724697 
220.856000 	 -0.737230 
219.870600 	 -0.752115 
218.879400 	 -0.766763 
217.863600 	 -0.780537 
216.848400 	 -0.794946 
215.849500 	 -0.807470 
214.836500 	 -0.822210 
213.826700 	 -0.836284 
212.842300 	 -0.847478 
211.839100 	 -0.858535 
210.850500 	 -0.869670 
209.884300 	 -0.881025 
208.868600 	 -0.895859 
207.864000 	 -0.913140 
206.863900 	 -0.929838 
205.863000 	 -0.946340 
204.895000 	 -0.959960 
203.918400 	 -0.974637 
202.937500 	 -0.989903 
201.927400 	 -1.009665 
200.910200 	 -1.033184 
199.899800 	 -1.055573 
198.904100 	 -1.078858 
197.908000 	 -1.099337 
196.904100 	 -1.119485 
195.913000 	 -1.141774 
194.888000 	 -1.163222 
193.881700 	 -1.185068 
192.861500 	 -1.206858 
191.862200 	 -1.225655 
190.884000 	 -1.246667 
189.885300 	 -1.269801 
188.908600 	 -1.293323 
187.903900 	 -1.319925 
186.860500 	 -1.345157 
185.868200 	 -1.369136 
184.869400 	 -1.393538 
183.869600 	 -1.418021 
182.892500 	 -1.446388 
181.884200 	 -1.475483 
180.886400 	 -1.504398 
179.885700 	 -1.535596 
178.895700 	 -1.562464 
177.907500 	 -1.590567 
176.888200 	 -1.623009 
175.883200 	 -1.653995 
174.879500 	 -1.686072 
173.873400 	 -1.717022 
172.871100 	 -1.744928 
171.888200 	 -1.770408 
170.889200 	 -1.799682 
169.885800 	 -1.830201 
168.893900 	 -1.861763 
167.880700 	 -1.895592 
166.890800 	 -1.927785 
165.901600 	 -1.959882 
164.922900 	 -1.989852 
163.924300 	 -2.024925 
162.898200 	 -2.060044 
161.894700 	 -2.093431 
160.895800 	 -2.129606 
159.871600 	 -2.160496 
158.893000 	 -2.190567 
157.885900 	 -2.223878 
156.874800 	 -2.258629 
155.886600 	 -2.293999 
154.872800 	 -2.329389 
153.871500 	 -2.364644 
152.881100 	 -2.396236 
151.896900 	 -2.426706 
150.908300 	 -2.460945 
149.918300 	 -2.494582 
148.915300 	 -2.529364 
147.922500 	 -2.568568 
146.926400 	 -2.605256 
145.912400 	 -2.641398 
144.892700 	 -2.679686 
143.858900 	 -2.716689 
142.847200 	 -2.754852 
141.866800 	 -2.791808 
140.884100 	 -2.826768 
139.904300 	 -2.862128 
138.907800 	 -2.896488 
137.891400 	 -2.934404 
136.866000 	 -2.977580 
135.837500 	 -3.015404 
134.817000 	 -3.060387 
133.801900 	 -3.099675 
132.827100 	 -3.135166 
131.861300 	 -3.177312 
130.868600 	 -3.214034 
129.887600 	 -3.256030 
128.864200 	 -3.304404 
127.827500 	 -3.345243 
126.841500 	 -3.386962 
125.837200 	 -3.430980 
124.861200 	 -3.469322 
123.876500 	 -3.515834 
122.868400 	 -3.560750 
121.867700 	 -3.605084 
120.848300 	 -3.650261 
119.860900 	 -3.698341 
118.874200 	 -3.742892 
117.889000 	 -3.792149 
116.918700 	 -3.838757 
115.923700 	 -3.885644 
114.942200 	 -3.936704 
113.953100 	 -3.983823 
112.940000 	 -4.037502 
111.939100 	 -4.089267 
110.909200 	 -4.144695 
109.881900 	 -4.203290 
108.890700 	 -4.260426 
107.901100 	 -4.320236 
106.930300 	 -4.378518 
105.933500 	 -4.437769 
104.946600 	 -4.498841 
103.957300 	 -4.559298 
102.949600 	 -4.623914 
101.975100 	 -4.690923 
100.974800 	 -4.757094 
99.958950 	 -4.828339 
98.938000 	 -4.900381 
97.957780 	 -4.970448 
96.931480 	 -5.043101 
95.938270 	 -5.114533 
94.958530 	 -5.187750 
93.934170 	 -5.265576 
92.933980 	 -5.347412 
91.940660 	 -5.431489 
90.926060 	 -5.517860 
89.926910 	 -5.605916 
88.941820 	 -5.694208 
87.924910 	 -5.783451 
86.934120 	 -5.872312 
85.940900 	 -5.961954 
84.938280 	 -6.052335 
83.952940 	 -6.147631 
82.958800 	 -6.245943 
81.940130 	 -6.348931 
80.921460 	 -6.456858 
79.890740 	 -6.563959 
78.882980 	 -6.674090 
77.885040 	 -6.781223 
76.896790 	 -6.887155 
75.942430 	 -6.996317 
74.950980 	 -7.108776 
73.955950 	 -7.227608 
72.951930 	 -7.351757 
71.927990 	 -7.479982 
70.920230 	 -7.609858 
69.913380 	 -7.741723 
68.919330 	 -7.871013 
67.908040 	 -8.004686 
66.890770 	 -8.135046 
65.902160 	 -8.265927 
64.914410 	 -8.402911 
63.930940 	 -8.537697 
62.966930 	 -8.680099 
61.945270 	 -8.830754 
60.945280 	 -8.982869 
59.936550 	 -9.137645 
58.919840 	 -9.292988 
57.931160 	 -9.444104 
56.933150 	 -9.596684 
55.958250 	 -9.751650 
54.961650 	 -9.912717 
53.968850 	 -10.076890 
52.981360 	 -10.241220 
51.961050 	 -10.415400 
50.971340 	 -10.587270 
49.980570 	 -10.759000 
48.949660 	 -10.938360 
47.964040 	 -11.112460 
46.975230 	 -11.285830 
45.984400 	 -11.463870 
45.013500 	 -11.639520 
43.997990 	 -11.817430 
42.982650 	 -12.000790 
41.979540 	 -12.191150 
40.969470 	 -12.383490 
39.983970 	 -12.573640 
38.972400 	 -12.767200 
37.992720 	 -12.954740 
37.014810 	 -13.139240 
36.026580 	 -13.332260 
35.033600 	 -13.526140 
34.015190 	 -13.720690 
32.972940 	 -13.922030 
31.952140 	 -14.125750 
30.969110 	 -14.326340 
29.950620 	 -14.530480 
28.971370 	 -14.731740 
27.959020 	 -14.927690 
26.947960 	 -15.116930 
25.974540 	 -15.305130 
24.986960 	 -15.493360 
24.039200 	 -15.678720 
23.055810 	 -15.877600 
22.051380 	 -16.080650 
21.048290 	 -16.280540 
20.019910 	 -16.486190 
19.023120 	 -16.687000 
18.026070 	 -16.878560 
17.028650 	 -17.071630 
16.030000 	 -17.260450 
15.031700 	 -17.446230 
14.040040 	 -17.634860 
13.037450 	 -17.820260 
12.038390 	 -18.010720 
11.030580 	 -18.200240 
10.007300 	 -18.388830 
9.014496 	 -18.579190 
8.008569 	 -18.755410 
7.020720 	 -18.923760 
6.031766 	 -19.087870 
5.028497 	 -19.243690 
4.043224 	 -19.406620 
3.039031 	 -19.572750 
2.049168 	 -19.737880 
1.058282 	 -19.905190 
0.059635 	 -20.062990 
-0.935329 	 -20.214890 
-1.909837 	 -20.347710 
-2.874554 	 -20.472860 
-3.845166 	 -20.599250 
-4.818006 	 -20.724240 
-5.806993 	 -20.860350 
-6.806135 	 -20.997650 
-7.803444 	 -21.129560 
-8.828341 	 -21.259640 
-9.838381 	 -21.384380 
-10.867220 	 -21.496060 
-11.878270 	 -21.602890 
-12.849570 	 -21.693310 
-13.839440 	 -21.773590 
-14.818090 	 -21.859770 
-15.822780 	 -21.940880 
-16.847230 	 -22.029140 
-17.882500 	 -22.117610 
-18.913190 	 -22.189430 
-19.917220 	 -22.251210 
-20.922330 	 -22.298880 
-21.895900 	 -22.335120 
-22.872850 	 -22.367760 
-23.866790 	 -22.388710 
-24.856950 	 -22.407090 
-25.837820 	 -22.414940 
-26.822880 	 -22.411700 
-27.826610 	 -22.416130 
-28.851870 	 -22.414010 
-29.886090 	 -22.407570 
-30.909670 	 -22.400380 
-31.913780 	 -22.373040 
-32.894600 	 -22.334400 
-33.863280 	 -22.293530 
-34.846490 	 -22.239070 
-35.830970 	 -22.183160 
-36.822960 	 -22.120750 
-37.829810 	 -22.043660 
-38.841480 	 -21.964640 
-39.833160 	 -21.876400 
-40.823290 	 -21.788050 
-41.843020 	 -21.702810 
-42.828610 	 -21.615250 
-43.845050 	 -21.528220 
-44.848240 	 -21.429590 
-45.848450 	 -21.321780 
-46.877940 	 -21.214110 
-47.849500 	 -21.099710 
-48.852230 	 -20.990800 
-49.850080 	 -20.886010 
-50.818370 	 -20.778240 
-51.810840 	 -20.672440 
-52.784980 	 -20.565130 
-53.770010 	 -20.458850 
-54.786060 	 -20.353160 
-55.827840 	 -20.241680 
-56.852780 	 -20.126940 
-57.867470 	 -20.005150 
-58.862780 	 -19.880220 
-59.857880 	 -19.764760 
-60.852200 	 -19.651020 
-61.856870 	 -19.541930 
-62.860600 	 -19.441270 
-63.857980 	 -19.333360 
-64.866120 	 -19.222360 
-65.845130 	 -19.114830 
-66.836050 	 -18.997510 
-67.832550 	 -18.881270 
-68.827770 	 -18.768860 
-69.827550 	 -18.655830 
-70.859400 	 -18.549780 
-71.857710 	 -18.446790 
-72.851390 	 -18.350790 
-73.873630 	 -18.254310 
-74.843530 	 -18.154400 
-75.838010 	 -18.060480 
-76.826160 	 -17.959960 
-77.799880 	 -17.855090 
-78.800050 	 -17.761410 
-79.808430 	 -17.667390 
-80.812480 	 -17.576660 
-81.825680 	 -17.497820 
-82.828920 	 -17.417030 
-83.837910 	 -17.334350 
-84.861240 	 -17.253030 
-85.878000 	 -17.172730 
-86.870900 	 -17.090480 
-87.834780 	 -17.005910 
-88.822760 	 -16.927600 
-89.791530 	 -16.841490 
-90.775800 	 -16.758600 
-91.803840 	 -16.698360 
-92.817440 	 -16.645730 
-93.840280 	 -16.603280 
-94.875140 	 -16.567050 
-95.881440 	 -16.518450 
-96.885550 	 -16.463270 
-97.865750 	 -16.409450 
-98.854990 	 -16.358670 
-99.842280 	 -16.316110 
-100.795400 	 -16.278950 
-101.777500 	 -16.249420 
-102.782800 	 -16.227020 
-103.771200 	 -16.203690 
-104.804200 	 -16.190340 
-105.831600 	 -16.181140 
-106.817500 	 -16.162370 
-107.806200 	 -16.151490 
-108.785800 	 -16.141690 
-109.787000 	 -16.131680 
-110.796500 	 -16.138720 
-111.827400 	 -16.148460 
-112.866100 	 -16.164130 
-113.890900 	 -16.183240 
-114.906000 	 -16.198220 
-115.917000 	 -16.214350 
-116.891900 	 -16.227800 
-117.860500 	 -16.242910 
-118.839300 	 -16.263510 
-119.824900 	 -16.286830 
-120.849300 	 -16.314710 
-121.856600 	 -16.350230 
-122.857100 	 -16.385840 
-123.861100 	 -16.429580 
-124.845200 	 -16.471080 
-125.855100 	 -16.508210 
-126.851900 	 -16.547050 
-127.829900 	 -16.575090 
-128.804000 	 -16.607620 
-129.787500 	 -16.647610 
-130.778300 	 -16.690990 
-131.794000 	 -16.747800 
-132.802200 	 -16.806910 
-133.815000 	 -16.863260 
-134.833000 	 -16.914990 
-135.838200 	 -16.957550 
-136.853900 	 -16.998970 
-137.853300 	 -17.034160 
-138.840700 	 -17.064870 
-139.825400 	 -17.104100 
-140.820800 	 -17.138740 
-141.810800 	 -17.177490 
-142.803800 	 -17.233790 
-143.825700 	 -17.281160 
-144.838700 	 -17.328050 
-145.852900 	 -17.375000 
-146.851300 	 -17.406530 
-147.836800 	 -17.445120 
-148.816800 	 -17.475520 
-149.789000 	 -17.506710 
-150.808600 	 -17.540610 
-151.790900 	 -17.566240 
-152.804600 	 -17.607040 
-153.822300 	 -17.642990 
-154.786900 	 -17.670230 
-155.790900 	 -17.706650 
-156.780500 	 -17.732480 
-157.766600 	 -17.750590 
-158.766600 	 -17.776740 
-159.795500 	 -17.799620 
-160.782800 	 -17.812580 
-161.781800 	 -17.834950 
-162.799500 	 -17.855270 
-163.803700 	 -17.866040 
-164.811800 	 -17.883650 
-165.828000 	 -17.896780 
-166.827200 	 -17.902940 
-167.773200 	 -17.901680 
-168.782300 	 -17.912010 
-169.798200 	 -17.922440 
-170.813000 	 -17.927650 
-171.857700 	 -17.936570 
-172.881500 	 -17.934300 
-173.870500 	 -17.924400 
-174.865900 	 -17.918600 
-175.862400 	 -17.911730 
-176.836700 	 -17.893420 
-177.845500 	 -17.880660 
-178.852100 	 -17.861280 
-179.822500 	 -17.838920 
-180.805700 	 -17.819980 
-181.766800 	 -17.799210 
-182.760900 	 -17.783910 
-183.786700 	 -17.763110 
-184.798200 	 -17.744480 
-185.816200 	 -17.721570 
-186.804600 	 -17.687690 
-187.810100 	 -17.660680 
-188.814900 	 -17.629900 
-189.829800 	 -17.597450 
-190.832500 	 -17.566400 
-191.821900 	 -17.529980 
-192.810600 	 -17.495120 
-193.789600 	 -17.460810 
-194.810000 	 -17.428520 
-195.816700 	 -17.395830 
-196.808400 	 -17.356510 
-197.795700 	 -17.313890 
-198.771000 	 -17.273380 
-199.738000 	 -17.224890 
-200.739800 	 -17.183680 
-201.737500 	 -17.142940 
-202.732900 	 -17.098840 
-203.752900 	 -17.062880 
-204.746000 	 -17.020810 
-205.757500 	 -16.975910 
-206.774600 	 -16.933500 
-207.752100 	 -16.886430 
-208.774800 	 -16.841000 
-209.770500 	 -16.797510 
-210.756500 	 -16.751680 
-211.767400 	 -16.709420 
-212.762900 	 -16.667710 
-213.785300 	 -16.625920 
-214.800600 	 -16.583790 
-215.806900 	 -16.536070 
-216.797000 	 -16.485560 
-217.768600 	 -16.432220 
-218.746700 	 -16.379110 
-219.736800 	 -16.333160 
-220.750600 	 -16.289450 
-221.748000 	 -16.246360 
-222.764200 	 -16.207180 
-223.783700 	 -16.161860 
-224.772200 	 -16.116320 
-225.788300 	 -16.072720 
-226.786900 	 -16.024440 
-227.780800 	 -15.976550 
-228.789500 	 -15.926900 
-229.778200 	 -15.877420 
-230.746100 	 -15.829000 
-231.729500 	 -15.782290 
-232.732700 	 -15.740280 
-233.757900 	 -15.697360 
-234.796300 	 -15.652180 
-235.819000 	 -15.608700 
-236.818800 	 -15.558440 
-237.802600 	 -15.508540 
-238.804200 	 -15.466230 
-239.793000 	 -15.421010 
-240.773200 	 -15.380650 
-241.784200 	 -15.340220 
-242.766900 	 -15.296670 
-243.769700 	 -15.254300 
-244.792300 	 -15.209530 
-245.786400 	 -15.166560 
-246.798900 	 -15.121500 
-247.788300 	 -15.073610 
-248.775600 	 -15.029050 
-249.766500 	 -14.982550 
-250.747500 	 -14.935530 
-251.756300 	 -14.895180 
-252.763600 	 -14.853030 
-253.761300 	 -14.808870 
-254.763700 	 -14.766610 
-255.753200 	 -14.720230 
-256.739000 	 -14.672170 
-257.724000 	 -14.631090 
-258.731400 	 -14.592340 
-259.748500 	 -14.555600 
-260.747500 	 -14.519650 
-261.762100 	 -14.481670 
-262.766400 	 -14.442690 
-263.756200 	 -14.400550 
-264.777000 	 -14.362660 
-265.797000 	 -14.321600 
-266.789900 	 -14.277040 
-267.784900 	 -14.235920 
-268.760700 	 -14.191890 
-269.732900 	 -14.148460 
-270.730600 	 -14.109880 
-271.742100 	 -14.072050 
-272.745800 	 -14.032660 
-273.767700 	 -13.993890 
-274.778400 	 -13.953060 
-275.776400 	 -13.911830 
-276.796900 	 -13.873630 
-277.791900 	 -13.838580 
-278.794200 	 -13.807000 
-279.791500 	 -13.771530 
-280.771800 	 -13.738210 
-281.755300 	 -13.703520 
-282.728700 	 -13.665290 
-283.725200 	 -13.632490 
-284.729200 	 -13.595850 
-285.735000 	 -13.559040 
-286.748100 	 -13.523640 
-287.746100 	 -13.485070 
-288.746300 	 -13.448940 
-289.744300 	 -13.413100 
-290.739800 	 -13.378640 
-291.754200 	 -13.345510 
-292.759100 	 -13.309320 
-293.772000 	 -13.272850 
-294.772300 	 -13.237290 
-295.734800 	 -13.201700 
-296.732500 	 -13.170890 
-297.726400 	 -13.141630 
-298.725200 	 -13.110650 
-299.744900 	 -13.080750 
-300.727300 	 -13.048890 
-301.721100 	 -13.016280 
-302.726900 	 -12.986110 
-303.718900 	 -12.954060 
-304.729900 	 -12.923070 
-305.734300 	 -12.891560 
-306.728100 	 -12.857990 
-307.729200 	 -12.824330 
-308.714000 	 -12.791140 
-309.700000 	 -12.758630 
-310.695500 	 -12.727700 
-311.698100 	 -12.698670 
-312.715500 	 -12.668000 
-313.735100 	 -12.638280 
-314.736300 	 -12.608590 
-315.740300 	 -12.580570 
-316.760600 	 -12.553360 
-317.747000 	 -12.525090 
-318.750700 	 -12.497400 
-319.742100 	 -12.466380 
-320.708600 	 -12.435860 
-321.708100 	 -12.407750 
-322.719800 	 -12.379650 
-323.747800 	 -12.354260 
-324.791400 	 -12.326930 
-325.817500 	 -12.300720 
-326.838600 	 -12.272620 
-327.825900 	 -12.241970 
-328.794000 	 -12.215180 
-329.778400 	 -12.189070 
-330.730400 	 -12.156020 
-331.732000 	 -12.131690 
-332.737100 	 -12.105480 
-333.722500 	 -12.074880 
-334.730500 	 -12.052460 
-335.710300 	 -12.023870 
-336.696400 	 -11.995310 
-337.705700 	 -11.971780 
-338.712400 	 -11.945670 
-339.723300 	 -11.919550 
-340.723400 	 -11.894580 
-341.719700 	 -11.866600 
-342.715100 	 -11.841490 
-343.705700 	 -11.813270 
-344.703900 	 -11.788040 
-345.704300 	 -11.759590 
-346.688400 	 -11.732810 
-347.682600 	 -11.708020 
-348.682200 	 -11.679630 
-349.690600 	 -11.654380 
-350.735200 	 -11.629710 
-351.749000 	 -11.606230 
-352.737800 	 -11.584080 
-353.714800 	 -11.561950 
-354.673600 	 -11.538570 
-355.665700 	 -11.514780 
-356.681200 	 -11.491340 
-357.691000 	 -11.467300 
-358.690600 	 -11.444090 
-359.683300 	 -11.420680 
-360.691200 	 -11.396840 
-361.702700 	 -11.373530 
-362.693500 	 -11.348570 
-363.708500 	 -11.324290 
-364.690700 	 -11.299650 
-365.683500 	 -11.274800 
-366.717300 	 -11.252000 
-367.727800 	 -11.227490 
-368.759200 	 -11.204610 
-369.751100 	 -11.184970 
-370.749000 	 -11.166230 
-371.721000 	 -11.150160 
-372.686100 	 -11.133400 
-373.686500 	 -11.114870 
-374.682300 	 -11.094910 
-375.713300 	 -11.074850 
-376.725400 	 -11.054300 
-377.723600 	 -11.033540 
-378.700000 	 -11.011220 
-379.680200 	 -10.989730 
-380.686900 	 -10.967100 
-381.691000 	 -10.943970 
-382.701100 	 -10.921620 
-383.683000 	 -10.897810 
-384.643400 	 -10.876530 
-385.638900 	 -10.855530 
-386.629900 	 -10.837110 
-387.649200 	 -10.817290 
-388.687800 	 -10.797770 
-389.694700 	 -10.778280 
-390.711500 	 -10.758730 
-391.704600 	 -10.740230 
-392.694400 	 -10.720140 
-393.681800 	 -10.699220 
-394.668600 	 -10.677230 
-395.664400 	 -10.656420 
-396.648000 	 -10.636260 
-397.642200 	 -10.618150 
-398.649900 	 -10.600590 
-399.661100 	 -10.582270 
-400.657400 	 -10.563830 
-401.670000 	 -10.543680 
-402.656400 	 -10.523360 
-403.634600 	 -10.503240 
-404.624900 	 -10.484560 
-405.596700 	 -10.466920 
-406.603900 	 -10.449590 
-407.605400 	 -10.432330 
-408.621900 	 -10.414920 
-409.630200 	 -10.397540 
-410.608400 	 -10.379580 
-411.592700 	 -10.362490 
-412.578600 	 -10.343360 
-413.585500 	 -10.323280 
-414.625500 	 -10.304410 
-415.629500 	 -10.284470 
-416.630900 	 -10.266170 
-417.650600 	 -10.250150 
-418.648300 	 -10.233200 
-419.677300 	 -10.217190 
-420.682000 	 -10.199300 
-421.654600 	 -10.179970 
-422.629900 	 -10.162730 
-423.602300 	 -10.145490 
-424.623000 	 -10.131210 
-425.640600 	 -10.117060 
-426.642600 	 -10.101630 
-427.668900 	 -10.087080 
-428.686000 	 -10.071370 
-429.689900 	 -10.055050 
-430.713600 	 -10.039230 
-431.723300 	 -10.021180 
-432.689400 	 -10.002760 
-433.674500 	 -9.985510 
-434.642100 	 -9.966986 
-435.601700 	 -9.950575 
-436.602500 	 -9.934935 
-437.602100 	 -9.920172 
-438.630200 	 -9.905015 
-439.652200 	 -9.888193 
-440.660400 	 -9.870573 
-441.662600 	 -9.852559 
-442.631900 	 -9.836954 
-443.619300 	 -9.823071 
-444.631400 	 -9.810268 
-445.620500 	 -9.796940 
-446.650600 	 -9.783859 
-447.655900 	 -9.771173 
-448.650600 	 -9.757444 
-449.671300 	 -9.744230 
-450.662900 	 -9.729229 
-451.670100 	 -9.713075 
-452.645100 	 -9.696652 
-453.632300 	 -9.680382 
-454.622300 	 -9.664346 
-455.612400 	 -9.647921 
-456.620200 	 -9.634172 
-457.616300 	 -9.619282 
-458.606600 	 -9.603734 
-459.618300 	 -9.589602 
-460.630900 	 -9.573660 
-461.636400 	 -9.559321 
-462.641800 	 -9.549273 
-463.627100 	 -9.538726 
-464.618800 	 -9.528566 
-465.614200 	 -9.518295 
-466.626600 	 -9.504528 
-467.663100 	 -9.491133 
-468.665500 	 -9.477701 
-469.676500 	 -9.463488 
-470.685900 	 -9.449580 
-471.661100 	 -9.434435 
-472.647600 	 -9.418915 
-473.645400 	 -9.405260 
-474.609200 	 -9.390416 
-475.633800 	 -9.378563 
-476.658100 	 -9.367047 
-477.667900 	 -9.353425 
-478.704700 	 -9.339993 
-479.706300 	 -9.326013 
-480.705800 	 -9.313168 
-481.715100 	 -9.300906 
-482.707500 	 -9.293266 
-483.685500 	 -9.284225 
-484.691000 	 -9.273146 
-485.672200 	 -9.261352 
-486.668600 	 -9.247621 
-487.646900 	 -9.231613 
-488.657200 	 -9.219817 
-489.666600 	 -9.210169 
-490.669700 	 -9.196409 
-491.703200 	 -9.186872 
-492.672900 	 -9.173367 
-493.656200 	 -9.160417 
-494.675200 	 -9.150145 
-495.686000 	 -9.139525 
-496.701100 	 -9.128578 
-497.712500 	 -9.116872 
-498.690500 	 -9.104363 
-499.649700 	 -9.090998 
-500.644700 	 -9.081006 
-501.631900 	 -9.070683 
-502.613800 	 -9.062502 
-503.636500 	 -9.053325 
-504.627000 	 -9.042968 
-505.654800 	 -9.032502 
-506.665800 	 -9.020003 
-507.664200 	 -9.009192 
-508.663900 	 -8.998333 
-509.645200 	 -8.986319 
-510.648800 	 -8.975918 
-511.608300 	 -8.963709 
-512.570800 	 -8.951553 
-513.550000 	 -8.941696 
-514.527300 	 -8.932325 
-515.551500 	 -8.924275 
-516.591100 	 -8.915603 
-517.595300 	 -8.905241 
-518.619600 	 -8.893594 
-519.633900 	 -8.882165 
-520.639000 	 -8.872618 
-521.650000 	 -8.863665 
-522.644700 	 -8.854631 
-523.639100 	 -8.845031 
-524.639800 	 -8.834147 
-525.635700 	 -8.822041 
-526.649800 	 -8.812558 
-527.664500 	 -8.803303 
-528.683700 	 -8.793540 
-529.710700 	 -8.785202 
-530.716700 	 -8.774173 
-531.709400 	 -8.762195 
-532.685700 	 -8.751191 
-533.670300 	 -8.741707 
-534.653300 	 -8.733232 
-535.639000 	 -8.725746 
-536.645300 	 -8.719012 
-537.642800 	 -8.709978 
-538.649700 	 -8.701328 
-539.662800 	 -8.693613 
-540.657000 	 -8.685421 
-541.654300 	 -8.677022 
-542.660800 	 -8.667169 
-543.653100 	 -8.658016 
-544.663800 	 -8.646542 
-545.649500 	 -8.636200 
-546.641500 	 -8.627713 
-547.634500 	 -8.618672 
-548.619100 	 -8.610924 
-549.612100 	 -8.602416 
-550.618800 	 -8.592864 
-551.612800 	 -8.580820 
-552.614100 	 -8.572210 
-553.649000 	 -8.565140 
-554.623500 	 -8.559600 
-555.633200 	 -8.553967 
-556.630900 	 -8.547283 
-557.604600 	 -8.539537 
-558.610400 	 -8.531129 
-559.614400 	 -8.524873 
-560.614600 	 -8.516707 
-561.611000 	 -8.508355 
-562.598600 	 -8.498248 
-563.580800 	 -8.488036 
-564.568700 	 -8.478206 
-565.570500 	 -8.469978 
-566.569000 	 -8.463956 
-567.586500 	 -8.458225 
-568.590500 	 -8.451642 
-569.599600 	 -8.443542 
-570.593000 	 -8.433194 
-571.601200 	 -8.423806 
-572.607100 	 -8.417092 
-573.588600 	 -8.411718 
-574.621900 	 -8.408211 
-575.627500 	 -8.403339 
-576.616600 	 -8.397973 
-577.632600 	 -8.392043 
-578.632100 	 -8.386188 
-579.627000 	 -8.380889 
-580.641800 	 -8.374044 
-581.645100 	 -8.366568 
-582.637100 	 -8.357170 
-583.622300 	 -8.348074 
-584.599400 	 -8.339538 
-585.593900 	 -8.332098 
-586.584400 	 -8.325577 
-587.566200 	 -8.319141 
-588.570200 	 -8.310750 
-589.563600 	 -8.301981 
-590.561800 	 -8.295340 
-591.581100 	 -8.288866 
-592.602200 	 -8.286360 
-593.602700 	 -8.284296 
-594.598100 	 -8.280633 
-595.591300 	 -8.276423 
-596.561500 	 -8.271519 
-597.574800 	 -8.266337 
-598.598000 	 -8.261897 
-599.604500 	 -8.256797 
-600.628800 	 -8.249647 
-601.622400 	 -8.242350 
-602.577800 	 -8.233065 
-603.556800 	 -8.225536 
-604.552500 	 -8.218500 
-605.546100 	 -8.211272 
-606.574000 	 -8.206656 
-607.585300 	 -8.198545 
-608.564600 	 -8.191292 
-609.557400 	 -8.185987 
-610.562600 	 -8.180191 
-611.570000 	 -8.177980 
-612.569600 	 -8.175667 
-613.555100 	 -8.172013 
-614.534100 	 -8.166832 
-615.502700 	 -8.161418 
-616.494200 	 -8.156858 
-617.511900 	 -8.151449 
-618.524700 	 -8.147623 
-619.546600 	 -8.143316 
-620.555400 	 -8.137785 
-621.553600 	 -8.132442 
-622.544700 	 -8.126805 
-623.530400 	 -8.121320 
-624.528900 	 -8.115329 
-625.528800 	 -8.110510 
-626.522900 	 -8.105274 
-627.523200 	 -8.099186 
-628.543200 	 -8.093707 
-629.561500 	 -8.089729 
-630.581000 	 -8.086561 
-631.591100 	 -8.084354 
-632.588700 	 -8.082199 
-633.585200 	 -8.079715 
-634.581500 	 -8.071708 
-635.603500 	 -8.068735 
-636.605700 	 -8.062008 
-637.604600 	 -8.055798 
-638.605700 	 -8.051380 
-639.580400 	 -8.043868 
-640.561400 	 -8.040339 
-641.557600 	 -8.036831 
-642.555100 	 -8.035032 
-643.567400 	 -8.032128 
-644.588700 	 -8.029301 
-645.598600 	 -8.024086 
-646.607800 	 -8.021810 
-647.596100 	 -8.017454 
-648.589400 	 -8.014245 
-649.578200 	 -8.010813 
-650.566800 	 -8.006648 
-651.596300 	 -8.004731 
-652.589600 	 -8.002708 
-653.564900 	 -8.001419 
-654.574900 	 -7.999542 
-655.559100 	 -7.997135 
-656.554100 	 -7.992716 
-657.559300 	 -7.987524 
-658.533800 	 -7.982733 
-659.519700 	 -7.977710 
-660.519000 	 -7.974033 
-661.521500 	 -7.972391 
-662.528000 	 -7.968586 
-663.530800 	 -7.963775 
-664.529100 	 -7.959003 
-665.530000 	 -7.954585 
-666.515900 	 -7.951507 
-667.498300 	 -7.952944 
-668.499500 	 -7.953215 
-669.496600 	 -7.952576 
-670.510600 	 -7.952739 
-671.525000 	 -7.949456 
-672.543200 	 -7.947834 
-673.538100 	 -7.946074 
-674.540600 	 -7.944318 
-675.551400 	 -7.942401 
-676.541300 	 -7.938380 
-677.553300 	 -7.934412 
-678.559100 	 -7.930218 
-679.552200 	 -7.926515 
-680.543400 	 -7.924272 
-681.549800 	 -7.922147 
-682.537400 	 -7.918435 
-683.540000 	 -7.916048 
-684.558200 	 -7.914663 
-685.550200 	 -7.913452 
-686.561500 	 -7.914959 
-687.559600 	 -7.914989 
-688.541900 	 -7.915142 
-689.537600 	 -7.914031 
-690.513000 	 -7.912354 
-691.501700 	 -7.910692 
-692.494900 	 -7.908185 
-693.498100 	 -7.908759 
-694.513200 	 -7.908623 
-695.537700 	 -7.908385 
-696.570300 	 -7.907223 
-697.577800 	 -7.904264 
-698.565300 	 -7.901727 
-699.535600 	 -7.900790 
-700.522600 	 -7.901160 
-701.519500 	 -7.900424 
-702.521500 	 -7.900345 
-703.517000 	 -7.899229 
-704.500800 	 -7.897397 
-705.473900 	 -7.898551 
-706.471200 	 -7.900618 
-707.474900 	 -7.902109 
-708.468400 	 -7.904558 
-709.468000 	 -7.905582 
-710.475300 	 -7.904919 
-711.470100 	 -7.905578 
-712.473900 	 -7.907014 
-713.485000 	 -7.908156 
-714.482700 	 -7.908848 
-715.489800 	 -7.909860 
-716.486000 	 -7.908227 
-717.468700 	 -7.907237 
-718.463600 	 -7.909505 
-719.451000 	 -7.910527 
-720.446200 	 -7.913832 
-721.454600 	 -7.916495 
-722.463900 	 -7.917590 
-723.479700 	 -7.919181 
-724.498600 	 -7.921996 
-725.527500 	 -7.925486 
-726.541900 	 -7.929425 
-727.550600 	 -7.932248 
-728.529100 	 -7.935225 
-729.519200 	 -7.936828 
-730.492200 	 -7.938319 
-731.492400 	 -7.942801 
-732.508200 	 -7.945862 
-733.519000 	 -7.949721 
-734.539900 	 -7.953458 
-735.538000 	 -7.955955 
-736.557200 	 -7.956986 
-737.544700 	 -7.961269 
-738.536400 	 -7.966847 
-739.533800 	 -7.972260 
-740.502200 	 -7.979520 
-741.493700 	 -7.985462 
-742.481500 	 -7.990708 
-743.470300 	 -7.995312 
-744.488400 	 -8.001131 
-745.508400 	 -8.005154 
-746.522200 	 -8.008634 
-747.526000 	 -8.014685 
-748.523800 	 -8.018418 
-749.499500 	 -8.023905 
-750.483000 	 -8.029617 
-751.462400 	 -8.035545 
-752.472900 	 -8.041570 
-753.481900 	 -8.047583 
-754.479400 	 -8.052958 
-755.487600 	 -8.056632 
-756.460200 	 -8.061199 
-757.457600 	 -8.069097 
-758.470300 	 -8.079125 
-759.477400 	 -8.089318 
-760.477700 	 -8.101124 
-761.457600 	 -8.110360 
-762.440700 	 -8.118677 
-763.449300 	 -8.128365 
-764.444600 	 -8.137642 
-765.461900 	 -8.145897 
-766.466200 	 -8.153444 
-767.456000 	 -8.160877 
-768.430800 	 -8.167483 
-769.428700 	 -8.174765 
-770.418800 	 -8.183978 
-771.412400 	 -8.194154 
-772.433700 	 -8.204104 
-773.424200 	 -8.213402 
-774.439500 	 -8.221121 
-775.431600 	 -8.228376 
-776.427700 	 -8.237179 
-777.424600 	 -8.250292 
-778.423000 	 -8.264429 
-779.434100 	 -8.279242 
-780.438600 	 -8.294329 
-781.454700 	 -8.306243 
-782.454200 	 -8.320198 
-783.465400 	 -8.332552 
-784.481100 	 -8.343654 
-785.483900 	 -8.355325 
-786.462200 	 -8.366089 
-787.456900 	 -8.378773 
-788.440400 	 -8.391875 
-789.439200 	 -8.405481 
-790.484300 	 -8.418095 
-791.468900 	 -8.430263 
-792.476200 	 -8.441401 
-793.447800 	 -8.450119 
-794.407800 	 -8.460573 
-795.420700 	 -8.473007 
-796.409100 	 -8.487120 
-797.410800 	 -8.501871 
